Fp1,Fp2,F7,F3,Fz,F4,F8,T3,C3,Cz,C4,T4,P3,Pz,P4,O1
-35.189,14.195,-23.559,11.395,21.581,-4.407,-26.792,-6.563,-29.592,16.492,-25.333,-1.654,-32.849,25.012,-23.879,-33.576
-36.628,15.717,-11.785,-6.305,27.072,-5.677,-22.204,-6.046,-31.663,3.484,-15.240,2.866,-39.073,26.412,-17.189,-27.330
-26.681,11.554,-2.631,-18.514,22.698,-21.045,-9.741,0.234,-30.858,8.663,-7.811,-13.761,-40.519,34.664,-8.759,-19.511
-14.339,13.447,5.502,-26.285,20.110,-24.296,-11.340,-0.106,-29.161,7.876,-3.201,-18.148,-48.269,43.748,-2.037,-14.251
-5.813,9.080,4.858,-36.117,20.806,-30.543,-7.380,-4.563,-27.890,-0.999,4.637,-14.342,-44.684,43.693,13.251,-15.741
0.327,10.456,1.985,-23.327,27.700,-24.801,-2.598,-7.036,-30.124,-3.857,6.703,-20.098,-47.561,41.097,21.751,-5.727
-2.995,8.231,-2.979,-15.626,25.694,-28.845,-2.318,-11.440,-25.384,-11.414,14.252,-24.640,-38.632,42.512,29.691,2.947
-2.010,4.268,-3.358,-16.457,25.386,-27.910,5.609,-20.746,-14.221,-13.200,34.585,-23.763,-32.009,40.475,45.483,7.369
-1.612,-2.452,-4.820,-6.248,21.562,-20.695,-6.679,-19.497,-14.636,-20.764,37.204,-17.919,-17.516,40.496,46.701,5.788
6.302,-1.677,-10.145,-4.784,21.855,-18.602,0.559,-16.627,-9.488,-28.957,37.376,-12.328,-3.185,43.364,41.405,11.054
10.114,-13.343,-7.776,-12.517,25.108,-21.837,3.257,-2.895,-15.059,-20.183,31.952,-19.940,14.780,39.456,43.555,19.536
8.446,-13.524,-6.013,-12.020,24.029,-26.807,1.953,2.227,-14.617,-9.516,31.488,-11.192,25.087,29.705,33.858,23.126
1.911,-12.949,-1.477,0.381,14.039,-19.260,8.967,12.914,-8.855,-2.835,20.344,0.338,29.806,18.920,31.641,28.908
4.190,-17.762,8.163,2.155,9.179,-12.259,19.388,20.537,-3.998,2.113,10.973,5.392,31.230,7.251,20.623,36.975
5.191,-3.063,10.803,0.127,6.903,-5.847,32.899,30.094,-7.841,17.877,8.527,0.634,32.776,-2.266,3.723,30.532
-4.156,-9.095,6.039,-4.674,-3.729,-11.388,29.708,25.055,-12.951,22.372,5.129,12.479,37.567,-10.386,-10.490,21.515
-9.964,-0.680,-3.062,-5.111,2.999,-12.576,22.929,24.669,-5.634,28.505,4.737,18.973,31.786,-17.261,-20.312,12.119
-14.391,4.592,-2.846,-2.894,-4.293,-19.421,21.203,19.795,-9.817,36.291,-3.617,9.267,32.778,-26.617,-31.007,0.665
-12.490,11.137,-10.568,-3.933,-0.157,-14.342,21.087,16.598,-2.534,31.325,6.813,7.575,19.880,-33.190,-36.869,-15.713
-7.804,16.893,-18.807,11.204,-4.916,-4.573,11.597,16.958,4.044,27.816,8.442,18.083,10.044,-42.733,-38.788,-30.451
-8.554,27.006,-24.222,17.787,-8.532,1.877,-1.136,18.603,2.968,23.064,2.535,25.132,6.440,-37.516,-33.472,-32.396
-10.094,32.614,-25.539,21.085,-10.452,6.895,-12.240,15.709,11.822,19.854,0.818,29.302,0.619,-33.142,-27.265,-46.231
-17.154,28.224,-39.248,22.811,-0.411,7.128,-11.234,1.214,-0.068,14.576,-6.402,28.792,-9.340,-31.267,-30.981,-54.036
-12.736,23.816,-36.850,20.861,3.716,2.386,-20.032,-4.146,-7.880,8.697,-0.832,14.513,-13.282,-18.910,-21.641,-57.008
-16.443,17.526,-36.588,21.199,14.417,8.940,-29.276,1.141,-9.843,14.159,-5.535,13.476,-12.952,-11.629,-20.422,-54.074
-21.468,24.763,-32.108,9.394,18.037,2.313,-26.965,0.114,-14.479,12.938,-4.951,3.935,-17.314,13.137,-7.871,-46.366
-25.643,9.861,-25.123,8.110,30.255,-3.483,-22.107,-4.485,-21.162,12.222,-4.122,3.881,-26.531,16.154,-6.838,-41.232
-23.140,9.388,-13.987,-4.775,34.565,-7.177,-29.854,-15.660,-33.152,15.346,-6.698,-2.414,-34.498,29.186,6.491,-32.673
-16.213,16.669,-6.974,-8.784,37.235,-8.655,-21.967,-4.379,-29.543,8.558,-8.577,-9.838,-35.974,31.719,9.673,-21.159
-10.543,3.585,-3.371,-9.668,36.364,-12.292,-8.635,-0.135,-41.069,5.642,-6.939,-15.868,-34.604,40.879,13.534,-13.150
-7.629,2.695,13.922,-21.228,31.089,-27.966,-7.390,-3.422,-36.602,4.280,0.528,-22.397,-29.928,36.890,25.161,-7.732
-4.374,1.116,16.216,-28.465,29.043,-34.681,-11.462,5.181,-41.008,-0.196,10.111,-30.255,-30.208,31.865,26.586,8.985
-3.105,0.056,20.274,-27.747,21.608,-44.765,-1.387,3.514,-45.003,-5.101,3.293,-22.170,-15.263,30.190,27.839,1.364
8.108,-3.351,16.655,-28.299,16.810,-44.293,-9.703,6.597,-36.233,1.317,15.898,-19.306,-12.347,33.952,36.375,7.706
9.416,-11.573,25.696,-18.720,12.786,-31.089,-1.496,-2.557,-15.956,-4.372,30.801,-11.655,-4.130,28.260,38.572,8.799
17.168,-9.442,14.437,-15.705,9.816,-29.779,-1.542,-11.815,-5.024,-15.351,42.415,-14.520,0.768,17.405,47.655,12.676
15.060,-1.428,22.305,-21.293,8.549,-24.160,-1.694,-2.475,2.148,-6.294,49.597,-7.681,14.829,16.332,45.275,13.263
18.507,-3.839,15.876,-13.187,4.039,-13.355,4.577,-4.333,8.637,-3.750,40.855,-8.664,14.699,8.310,47.286,17.698
12.682,-4.813,-4.553,-11.087,8.684,-3.346,16.994,-9.641,7.772,-5.699,39.926,6.079,27.093,9.204,40.919,23.784
16.035,-14.050,1.593,3.935,9.402,-3.764,3.208,-1.742,6.102,-3.628,34.064,5.353,48.481,-0.634,29.848,23.559
5.948,-13.807,-1.762,4.720,3.199,-4.011,5.286,9.206,12.448,-6.636,17.449,8.032,55.801,3.650,17.682,23.403
-5.839,-13.293,5.472,1.386,12.394,3.547,22.594,21.458,11.368,7.339,14.522,11.713,48.603,-10.488,8.829,22.693
-2.975,-16.914,7.948,13.226,5.468,1.882,19.642,27.329,6.206,12.571,9.407,13.268,44.070,-18.683,-8.475,10.907
-1.323,-14.430,10.514,7.330,5.572,8.641,18.039,24.598,7.919,24.196,2.466,16.990,32.658,-26.683,-27.093,-3.520
-6.582,-2.410,6.933,5.733,0.913,-1.636,14.903,26.077,1.726,22.116,-5.328,19.119,20.545,-30.719,-33.994,-18.425
-10.708,0.122,0.034,3.291,-8.010,3.094,9.093,38.095,-6.078,26.661,-9.318,19.250,13.057,-37.318,-43.635,-25.855
-2.651,6.424,-8.321,2.216,-6.383,4.170,9.298,34.948,-0.728,24.610,-9.930,6.196,1.957,-39.586,-46.177,-30.509
-4.339,15.478,-13.847,-1.550,-0.786,3.760,3.884,20.857,0.895,25.273,-7.797,23.787,-19.915,-38.324,-47.612,-31.719
-9.082,20.359,-22.643,-5.435,-1.613,14.063,-9.112,18.416,-1.617,23.745,-5.568,29.697,-29.462,-34.834,-52.536,-38.947
-3.203,20.895,-35.364,7.386,1.802,2.091,1.683,2.744,-10.711,10.460,1.701,14.501,-31.304,-28.656,-46.285,-38.290
-14.911,18.966,-38.530,15.527,11.872,7.375,-6.461,-5.833,-6.461,5.670,5.606,23.310,-38.641,-15.281,-28.164,-43.820
-20.158,27.393,-31.606,6.342,16.539,14.645,-14.687,-9.923,-13.517,1.833,7.250,21.709,-37.252,3.543,-27.955,-40.152
-10.693,22.452,-26.590,9.394,23.776,20.779,-25.222,-17.113,-22.209,-10.676,14.911,19.082,-46.316,24.585,-4.148,-33.550
-14.419,20.968,-25.481,-9.109,29.349,13.500,-22.132,-21.389,-24.828,-12.311,11.093,18.106,-34.042,30.181,8.924,-20.649
-19.497,16.637,-15.309,-8.823,35.755,2.025,-14.055,-23.694,-29.223,-14.885,5.531,-2.845,-26.638,34.635,13.892,-11.316
-19.930,2.136,1.415,-5.925,39.639,-4.339,-10.078,-17.219,-40.856,-13.721,-4.869,-8.543,-26.640,43.392,18.637,3.058
-21.461,-9.534,5.021,-13.837,42.171,-13.913,-9.755,-14.386,-41.722,-13.586,5.353,-15.481,-14.914,44.642,26.160,11.475
-14.265,-15.970,17.272,-15.950,37.528,-19.139,14.436,-2.504,-47.329,-11.643,10.975,-16.187,-21.043,49.668,26.461,25.664
-3.597,-16.898,12.510,-27.215,35.885,-26.497,13.344,-8.802,-46.725,-11.353,14.997,-15.064,-20.425,44.090,40.841,36.050
12.017,-14.999,9.483,-38.791,26.309,-20.761,12.631,-1.330,-36.081,-4.217,24.377,-15.466,-19.655,34.277,38.144,30.409
12.416,-16.737,30.553,-36.785,23.335,-27.265,25.483,0.194,-24.939,-5.669,19.126,-14.662,-11.501,20.606,27.972,32.066
21.924,-23.999,26.290,-36.686,17.650,-33.400,24.113,-4.784,-19.499,-15.768,26.288,-9.583,-6.982,14.026,20.263,37.363
24.895,-14.798,17.867,-18.082,11.352,-22.688,23.122,8.672,-12.673,-18.439,26.896,-6.173,9.273,5.372,19.008,28.063
22.293,-15.564,11.070,-17.864,6.492,-11.871,22.095,3.456,6.584,-20.964,33.801,3.454,16.452,-1.731,14.171,19.489
25.253,-9.592,1.709,-15.369,2.638,-4.480,21.953,6.918,6.057,-16.709,33.599,13.330,18.914,-2.547,15.807,16.365
21.458,-11.197,0.263,-10.049,1.134,-5.341,11.685,15.747,10.677,-19.991,37.432,25.571,18.428,-16.896,9.589,15.794
11.664,-8.523,0.877,12.820,2.710,1.270,7.308,15.526,4.814,-18.174,33.077,18.372,34.960,-13.373,8.219,7.890
-1.766,-7.252,6.883,3.920,0.278,4.922,7.256,20.713,8.964,-8.953,18.886,28.341,28.508,-18.738,-3.075,2.866
-3.905,-7.997,1.511,6.929,6.911,7.886,7.947,10.564,-2.209,3.633,9.469,35.248,31.522,-20.592,-12.232,-5.207
-13.562,-0.872,-4.366,18.218,10.093,7.922,1.754,11.003,-3.008,9.458,4.027,32.006,31.767,-24.610,-24.027,-10.539
-16.681,-4.517,8.780,22.791,13.536,10.080,6.857,16.796,-5.390,10.318,-5.803,32.229,17.296,-30.828,-29.294,-13.127
-16.235,-4.337,-3.786,13.077,12.736,8.246,8.316,9.160,-17.232,20.269,-12.684,39.112,8.948,-28.170,-43.818,-31.380
-25.758,5.415,0.650,25.955,14.996,13.032,9.526,18.463,-24.681,15.071,-7.874,30.462,-6.135,-26.326,-42.745,-40.018
-25.786,9.481,-18.438,5.313,14.685,2.729,4.428,9.318,-24.018,20.026,-10.548,23.929,-20.086,-29.614,-45.036,-44.917
-26.275,18.752,-24.304,0.311,8.478,-0.460,-4.392,11.544,-28.937,18.243,-10.500,10.261,-21.646,-31.386,-50.478,-58.167
-17.948,30.624,-25.326,-8.262,8.782,-6.966,-3.889,0.841,-27.930,19.052,-13.759,8.496,-38.873,-14.731,-40.503,-57.612
-17.029,23.826,-18.861,-8.426,13.085,-9.049,-0.619,-1.008,-24.138,11.333,-13.722,20.188,-49.632,-8.832,-33.052,-53.209
-12.919,21.427,-16.359,-17.158,20.770,-6.558,-5.160,-9.053,-15.732,-0.746,-2.084,11.867,-49.592,-7.747,-15.100,-38.294
-9.343,28.285,-23.915,-7.867,17.798,-16.729,-17.146,-18.145,-24.770,-6.485,10.606,17.363,-46.400,9.292,-2.265,-37.655
-0.561,19.081,-14.159,0.837,26.998,-10.777,-22.443,-12.627,-30.989,-16.173,12.608,14.830,-40.549,24.238,9.428,-28.782
-6.642,22.400,-15.545,-0.286,33.297,-19.988,-18.568,-23.857,-25.385,-9.147,21.730,12.430,-38.418,31.357,29.500,-16.775
-9.310,13.066,-8.715,-15.682,36.945,-21.423,-21.991,-18.979,-26.165,-14.105,21.187,16.272,-35.039,39.998,36.987,-4.118
-7.204,-3.440,5.797,-12.314,34.679,-15.219,-12.626,-19.540,-29.246,-14.078,28.623,13.781,-25.938,45.917,47.792,2.647
-2.253,-13.241,-2.161,-23.864,36.878,-13.171,-1.035,-16.751,-25.432,-12.191,23.920,4.602,-13.822,45.901,55.244,17.864
-1.899,-12.241,11.199,-13.385,33.420,-15.657,2.915,-14.023,-39.919,-11.733,11.237,4.543,-13.713,39.096,54.447,40.350
4.484,-15.436,11.126,-21.432,34.300,-17.666,13.208,-2.835,-37.748,-15.008,15.772,-10.561,0.715,30.044,52.479,40.661
8.621,-18.983,17.920,-26.092,25.524,-26.880,20.898,11.385,-27.791,-6.897,11.832,-15.842,8.611,24.793,44.288,38.541
9.256,-28.210,28.029,-24.860,21.781,-35.043,31.568,13.679,-22.147,-6.882,18.323,-14.523,13.446,15.406,41.829,32.018
14.336,-23.219,21.766,-25.260,17.204,-40.887,34.475,11.507,-13.423,-9.112,16.793,-10.311,17.004,1.080,30.260,34.838
21.473,-23.866,26.617,-24.344,6.511,-40.046,33.130,22.572,-14.527,0.387,23.992,-11.139,14.602,-10.792,13.518,34.324
25.533,-12.970,25.834,-17.846,0.271,-25.469,21.754,15.804,-5.337,-0.312,29.631,-3.900,16.127,-24.508,16.889,27.262
22.866,-13.418,14.091,-17.557,-4.879,-22.496,21.573,10.657,-1.290,-5.008,34.846,5.720,17.415,-30.803,6.365,20.367
17.262,-10.048,10.010,-7.971,-0.206,-11.759,21.485,9.993,9.964,-2.906,38.827,8.126,15.701,-41.325,-1.283,20.849
15.081,-0.764,-4.731,-1.607,-8.121,4.265,11.869,9.671,7.531,3.389,24.840,21.004,28.236,-30.149,-9.421,12.359
11.793,-1.852,-25.672,4.922,-4.537,6.231,2.622,7.549,10.066,3.959,26.593,24.936,29.041,-35.740,-14.800,1.678
3.303,2.898,-18.133,8.706,-2.364,21.494,-3.394,8.431,5.152,5.533,22.482,39.290,22.282,-44.210,-11.887,-9.248
-12.221,3.051,-29.064,8.159,2.239,17.792,-2.650,8.221,8.041,21.106,13.381,33.695,23.327,-48.713,-19.813,-20.478
-10.105,4.200,-29.904,8.205,3.931,19.783,-13.885,5.309,7.428,19.842,8.631,30.946,12.865,-37.923,-30.458,-25.784
-18.659,6.756,-23.583,-6.021,5.502,24.937,-1.129,8.746,5.878,19.894,-9.148,20.860,1.817,-27.970,-37.315,-21.671
-19.539,2.979,-11.491,-2.320,8.422,22.904,2.465,15.703,-15.282,30.072,-17.371,14.747,-8.302,-25.192,-32.138,-28.398
-23.981,12.232,-13.442,5.013,10.019,18.752,0.587,8.628,-16.377,33.436,-21.549,9.412,-15.537,-31.823,-38.324,-22.913
-27.976,14.922,-18.684,-2.526,16.211,16.970,-0.004,5.949,-21.138,30.678,-17.161,-6.639,-26.380,-3.316,-32.868,-23.336
-23.238,19.172,-5.216,-14.470,19.522,8.120,-10.053,-2.835,-27.294,32.233,-19.705,-5.779,-36.955,-1.426,-28.448,-26.120
-17.587,20.958,-10.702,-17.408,9.307,-0.789,-17.602,-2.470,-28.122,23.968,-7.181,-14.510,-42.945,2.192,-23.507,-31.006
-14.693,27.345,-13.933,-19.886,9.211,-3.026,-11.346,-6.323,-28.123,18.496,-5.444,-8.717,-48.333,20.761,-17.224,-28.091
-0.014,28.722,-20.447,-14.926,12.884,-20.555,-14.886,-14.718,-27.702,8.559,9.599,-11.922,-52.882,18.370,-8.247,-26.773
-3.764,20.570,-9.764,-5.955,17.637,-14.222,-12.116,-23.395,-16.443,-4.094,16.545,-12.292,-50.595,14.886,10.588,-26.635
-0.185,14.262,-14.151,-9.226,24.714,-15.331,-9.443,-19.003,-17.960,-18.402,20.988,-13.524,-34.670,30.357,19.058,-10.059
7.689,2.302,-7.556,-13.663,27.607,-12.631,-8.898,-18.385,-15.931,-21.388,27.802,-19.449,-24.809,31.000,29.815,3.395
6.311,-7.364,-8.045,-10.367,31.036,-11.023,-0.166,-24.797,-26.182,-19.584,21.138,-16.204,-8.241,43.922,45.417,17.402
-2.106,-10.066,-6.615,-9.923,32.788,-20.678,-10.248,-20.047,-19.802,-18.596,19.531,-15.734,6.100,46.057,37.895,27.856
-12.148,-11.177,2.670,-11.194,33.926,-14.163,-0.121,-17.088,-20.957,-21.087,10.931,-9.697,21.587,42.239,41.031,33.783
-9.856,-22.855,13.638,-12.844,37.038,-17.786,9.092,-4.281,-20.574,-13.140,17.640,-11.387,18.834,32.622,37.691,32.621
-8.131,-21.512,23.927,-20.810,28.678,-16.485,24.113,4.199,-15.321,0.141,26.474,-9.793,26.240,27.800,38.566,37.405
-4.032,-23.828,24.501,-28.859,26.085,-30.443,25.300,15.098,-19.379,14.876,26.887,-5.540,28.248,14.251,30.453,37.672
-0.885,-24.402,16.940,-26.764,18.723,-28.197,31.574,26.884,-9.576,11.178,16.942,-13.153,34.429,3.945,17.612,43.286
8.592,-14.947,10.854,-32.336,16.629,-15.000,33.625,20.778,2.651,16.129,14.993,-12.822,35.949,-19.368,5.045,27.881
11.881,-9.619,16.509,-17.724,14.977,-15.241,26.944,22.126,5.688,19.003,14.957,-15.927,34.736,-31.385,-5.624,17.218
8.268,-1.823,5.617,-9.487,-6.175,-7.537,14.560,22.556,1.967,20.850,19.449,-7.252,25.067,-37.253,-18.336,-2.802
6.667,1.575,1.555,-13.191,-10.004,-7.025,16.713,22.672,5.307,9.177,28.047,1.563,14.828,-46.898,-22.393,-2.638
8.280,1.333,-2.462,-6.094,-9.316,2.177,11.988,17.620,8.212,12.044,12.019,8.448,10.343,-56.544,-20.885,-17.808
-3.039,9.351,-14.419,-4.631,-4.628,11.120,-3.789,20.215,17.254,13.428,10.110,18.734,0.945,-45.628,-27.399,-29.714
-13.007,10.136,-19.227,12.149,-1.060,22.171,-10.725,9.608,9.107,9.714,6.175,22.403,-5.250,-47.323,-23.825,-38.143
-18.897,11.662,-24.299,15.744,4.424,22.916,-14.045,-7.934,5.380,8.939,3.041,26.106,2.201,-34.646,-11.660,-47.842
-20.931,13.102,-19.758,12.378,8.939,34.351,-15.928,-4.139,5.848,18.993,-1.807,27.457,-3.595,-24.402,-17.946,-52.249
-25.215,13.626,-24.531,20.519,16.785,25.559,-24.275,-3.789,-2.981,13.996,-5.655,22.175,-13.335,-9.909,-18.570,-46.788
-29.813,12.166,-18.347,13.198,27.759,31.572,-22.789,-0.149,-8.606,14.616,-11.577,20.286,-15.073,-1.765,-22.141,-42.606
-36.439,6.813,-4.523,7.692,32.596,25.053,-14.434,-7.058,-20.119,13.400,-10.773,11.896,-32.525,5.983,-12.581,-44.599
-37.081,10.644,5.119,-0.604,32.427,7.783,-7.728,-17.961,-38.639,16.968,-10.343,0.991,-37.028,12.505,-12.780,-36.717
-32.952,9.919,1.573,-12.168,28.828,-2.999,-12.171,-12.031,-40.994,17.347,-4.301,-11.012,-50.843,19.463,-3.706,-28.005
-29.205,6.953,-1.760,-24.352,32.927,-9.855,-7.617,-1.806,-40.643,10.026,2.138,-25.402,-45.599,22.922,-1.008,-21.335
-17.333,7.273,0.653,-21.747,34.147,-16.612,-0.859,-16.564,-38.628,1.146,-0.431,-20.572,-45.009,24.763,13.129,-13.107
-7.143,1.762,3.188,-28.563,43.246,-18.459,-0.454,-17.375,-34.208,0.478,9.034,-24.991,-42.539,39.329,9.237,-5.311
-0.027,6.744,2.274,-26.219,35.924,-29.242,4.171,-20.822,-33.890,-4.398,19.347,-18.635,-40.552,39.719,10.562,-3.072
9.939,0.916,-2.887,-24.280,34.074,-36.283,3.526,-20.780,-14.800,-14.483,20.936,-20.202,-33.126,36.551,23.864,6.768
23.606,0.213,-0.350,-18.623,25.661,-31.371,-1.160,-26.732,-14.675,-30.774,18.449,-13.535,-20.494,38.519,37.374,13.049
26.019,-6.077,6.677,-20.340,27.980,-18.732,2.220,-30.670,-10.937,-30.985,32.773,-4.736,-6.428,37.630,46.944,26.641
23.088,-13.679,9.588,-17.337,30.223,-21.322,3.654,-16.792,-6.628,-27.501,35.183,1.618,1.666,35.721,48.089,18.921
17.867,-15.771,15.688,-13.538,26.422,-21.493,13.839,-12.003,2.097,-27.315,26.848,3.011,20.700,28.110,41.721,21.489
23.020,-24.452,30.915,-6.251,24.378,-19.579,15.423,-1.517,10.360,-19.783,20.468,0.126,32.002,28.443,43.610,39.645
16.671,-35.433,20.344,-6.145,22.939,-13.805,9.703,8.497,4.350,-11.723,21.636,-0.912,38.809,27.815,41.843,36.323
15.380,-36.364,17.300,-3.937,22.166,-6.266,7.203,10.371,2.568,-3.430,4.481,7.122,34.751,5.584,35.968,34.528
0.050,-36.371,18.007,-5.114,16.439,-10.325,20.431,9.265,6.283,5.771,17.783,5.133,38.761,-4.889,25.046,32.843
7.095,-27.324,19.468,-9.566,13.133,-5.226,31.903,19.149,4.808,11.106,10.817,4.863,37.408,-19.284,8.046,25.596
10.350,-21.073,16.695,-7.216,-0.928,-17.910,33.145,35.572,10.377,30.781,-2.195,9.307,28.990,-29.083,-9.671,15.383
11.552,-9.986,13.771,-1.464,-5.966,-11.974,29.218,26.385,2.356,29.181,-9.048,4.382,27.025,-42.076,-27.292,3.103
10.621,-4.208,14.734,8.305,-9.062,-9.493,26.861,24.101,2.726,28.909,3.892,9.482,11.940,-45.576,-36.424,-13.820
5.211,6.873,5.337,3.245,-9.938,-3.309,11.414,15.465,13.731,18.076,-2.555,13.759,-1.250,-48.585,-33.412,-25.853
4.325,10.236,-0.104,14.164,-10.886,-2.929,1.984,9.654,14.332,13.465,-2.201,18.246,-13.259,-46.615,-42.059,-40.667
-3.580,16.667,-7.902,14.483,-0.933,1.500,0.611,9.337,5.696,15.457,-3.667,25.081,-13.574,-38.991,-39.614,-47.628
-8.364,14.942,-11.345,14.977,2.851,17.442,-20.975,-4.842,10.110,13.831,4.161,29.880,-9.902,-36.724,-40.603,-47.772
-9.964,15.902,-19.390,15.108,5.919,15.504,-25.441,-5.048,3.864,15.935,5.859,21.377,-11.196,-32.462,-25.481,-55.292
-19.146,12.672,-24.716,12.745,22.185,15.596,-25.422,-14.790,3.104,11.296,2.479,22.650,-18.272,-13.344,-25.292,-53.963
-21.828,15.134,-21.024,8.033,29.283,15.886,-26.874,-9.696,-8.409,9.277,-0.839,29.719,-16.342,1.628,-17.511,-39.775
-31.435,8.261,-14.936,13.030,35.190,15.405,-19.692,-7.896,-14.511,9.053,1.424,11.436,-8.722,16.881,-0.708,-32.015
-37.806,5.878,-4.653,2.147,37.756,2.615,-20.593,-12.045,-26.092,12.981,8.979,8.738,-21.416,28.131,8.727,-26.174
-32.975,3.540,8.914,-1.832,38.002,2.237,-19.623,-16.351,-20.021,-1.943,2.764,-3.489,-16.493,36.818,14.757,-5.817
-25.081,3.803,15.100,-8.829,36.726,-9.249,-14.431,-5.586,-25.505,11.236,0.154,12.936,-21.025,41.444,22.061,1.543
-10.580,3.242,10.748,-25.130,40.042,-23.286,-6.248,-3.173,-31.044,9.801,-0.878,-3.633,-20.117,39.635,17.774,3.788
-3.280,-0.050,20.034,-27.074,35.516,-34.325,1.522,-9.232,-29.095,6.006,-0.881,-15.629,-20.136,36.781,19.555,15.640
7.414,3.582,19.826,-37.103,37.408,-30.961,2.946,-10.674,-22.691,-0.080,10.626,-18.069,-22.454,32.015,25.075,16.446
18.799,5.118,13.429,-38.824,23.824,-36.153,11.631,-7.919,-16.760,-6.292,15.483,-11.148,-22.899,28.910,31.524,18.076
24.637,5.472,10.981,-26.297,14.868,-31.039,4.448,-3.494,-13.488,-9.938,21.039,2.301,-13.439,22.767,39.157,15.726
21.058,7.081,16.627,-16.043,12.539,-22.593,9.890,-7.704,-15.013,-14.755,33.957,2.550,-4.845,20.314,32.102,24.180
24.548,-0.212,17.799,-13.862,17.267,-23.404,4.593,-13.452,-0.477,-18.411,43.399,12.460,15.537,12.611,31.788,30.841
14.907,-8.386,12.565,1.286,13.877,-14.629,5.865,-9.340,10.137,-12.953,43.060,14.868,24.091,-0.582,34.809,34.508
18.634,-17.515,15.889,-5.689,5.178,-2.024,13.044,-9.870,13.668,-13.367,38.770,27.762,34.759,0.401,36.022,31.239
22.020,-14.383,6.975,5.684,9.708,2.610,8.442,-1.831,22.109,0.024,37.528,24.806,39.059,-9.075,29.825,24.559
10.965,-18.196,13.806,8.456,9.571,-2.010,4.688,9.949,20.354,6.127,30.336,13.774,42.920,-18.564,16.019,15.691
-3.190,-15.452,18.324,3.177,5.968,2.428,10.375,6.525,13.028,16.999,23.914,7.961,46.279,-20.134,6.439,19.463
-9.604,-13.483,15.291,11.889,4.532,2.386,15.535,9.912,7.905,24.464,19.943,22.327,43.063,-26.389,-8.148,10.554
-4.087,-7.937,11.177,21.580,-0.088,6.192,8.075,29.494,1.036,15.242,6.820,7.247,35.686,-37.739,-17.153,3.648
-12.932,-5.795,3.516,16.360,-6.729,-2.685,10.920,36.135,0.923,25.530,5.389,14.060,25.230,-36.757,-36.200,-3.817
-11.170,6.598,13.823,3.997,-8.299,5.884,9.170,33.392,-6.574,28.644,-3.369,8.178,13.334,-46.308,-41.790,-8.398
-5.654,12.292,0.849,8.530,-2.607,4.837,-2.690,24.165,-2.436,36.795,-5.772,11.941,16.338,-47.443,-44.283,-30.917
-3.984,15.888,-10.807,8.625,-3.985,3.009,-12.887,8.609,-4.665,23.618,-3.674,12.616,-6.569,-41.656,-49.617,-44.504
-8.765,18.858,-18.752,2.641,-1.763,1.274,-8.364,6.889,4.106,18.410,-9.997,6.622,-22.706,-32.814,-49.214,-42.188
-6.896,22.798,-13.521,0.380,5.031,4.996,-7.913,0.767,8.221,7.353,-3.267,8.466,-29.721,-17.330,-46.289,-44.794
-2.176,21.061,-7.534,5.106,9.549,14.671,-13.822,0.424,8.567,1.671,8.722,7.221,-39.167,-10.945,-41.828,-50.116
-5.523,17.886,-14.302,8.436,13.583,7.790,-11.818,-13.599,15.224,-4.449,4.485,2.321,-35.430,10.221,-23.962,-38.126
-4.583,8.765,-11.845,21.173,23.935,9.201,-17.313,-13.412,13.301,-16.282,7.094,-11.208,-36.269,26.743,-11.211,-37.588
-17.497,6.496,-6.961,14.679,31.676,7.124,-11.032,-23.213,-0.142,-10.698,12.873,-15.331,-27.950,38.358,-1.969,-36.799
-19.348,4.969,-10.444,-4.949,34.727,4.439,-22.195,-20.654,-1.438,-10.159,10.064,-3.389,-28.199,44.650,11.139,-25.114
-18.219,-0.561,-3.369,-9.251,45.225,-1.094,-20.316,-13.851,-11.214,-5.797,7.189,-23.091,-31.004,51.527,11.708,-6.837
-14.255,-6.975,5.714,-14.446,50.370,-11.605,-14.372,-16.392,-16.675,-6.187,10.344,-24.291,-21.408,55.286,20.896,9.010
-5.246,-12.016,14.163,-25.861,42.882,-14.681,-5.261,-11.200,-27.230,-16.093,5.367,-37.059,-14.060,50.711,31.478,18.457
2.199,-8.833,21.102,-19.394,38.041,-29.717,9.240,-6.737,-22.786,-9.796,17.023,-25.550,-11.821,48.574,22.895,21.439
3.546,-13.964,26.900,-28.349,23.338,-24.952,1.516,0.687,-14.326,-9.718,16.027,-33.028,-9.964,33.539,21.819,30.505
17.239,-13.179,28.218,-18.538,21.046,-28.308,-0.169,4.400,-16.568,-10.191,26.039,-21.368,-0.830,26.415,25.879,25.759
13.321,-15.698,33.928,-21.518,16.159,-37.199,6.275,5.774,-7.275,-14.097,27.566,-15.442,2.453,16.494,25.160,26.818
15.124,-13.473,20.127,-15.128,13.536,-41.458,13.592,8.807,-5.803,-21.030,35.517,-9.276,3.423,-3.360,18.138,28.258
21.351,-15.811,13.148,-17.189,13.886,-25.206,12.115,3.882,2.356,-20.334,37.588,7.194,5.543,-8.143,22.968,22.930
18.750,-17.499,11.908,-5.541,2.934,-20.713,4.363,7.064,8.042,-19.165,35.287,11.326,20.578,-17.078,20.970,17.459
17.481,-5.347,9.713,4.982,1.190,-18.635,12.181,0.681,13.038,-10.821,40.279,21.948,26.840,-21.613,7.111,16.345
19.578,-12.350,6.713,6.670,3.092,-13.510,-0.951,-9.506,20.942,-7.620,41.089,24.786,29.962,-28.741,-5.468,6.452
14.457,-9.809,-2.273,17.877,2.843,-10.767,9.132,8.794,19.366,-0.764,31.566,18.337,24.889,-36.627,-11.405,6.303
6.479,-11.534,0.749,22.733,7.671,0.031,0.543,12.183,15.252,9.617,26.572,26.410,29.688,-32.858,-15.016,11.115
-6.326,-8.562,-0.465,21.930,3.211,13.771,-4.893,12.847,19.920,16.263,11.416,17.521,18.748,-37.970,-33.440,-2.235
-20.002,-1.917,-2.095,18.472,-1.753,-0.379,-2.888,22.678,5.384,20.432,13.632,25.308,16.211,-35.393,-37.686,-5.009
-18.201,-3.151,-1.994,7.751,5.979,10.900,-10.140,23.369,2.148,22.327,5.512,26.477,2.414,-35.614,-44.265,-12.820
-15.950,3.411,8.538,14.682,1.955,7.752,-6.434,16.545,-3.943,30.716,-11.332,14.791,-6.131,-36.217,-52.165,-19.179
-18.810,5.772,4.298,-4.700,3.743,6.934,-8.352,16.792,-10.652,27.785,-11.396,18.710,-9.204,-43.257,-61.960,-27.479
-11.950,13.821,4.387,12.277,7.200,-3.732,-12.693,1.957,-17.270,23.938,-14.700,12.907,-27.367,-36.939,-58.354,-43.596
-11.578,15.645,10.382,10.879,5.930,-2.115,-13.892,-8.340,-19.634,17.313,-13.862,6.336,-39.666,-23.668,-49.983,-46.752
-7.245,26.317,3.682,11.584,1.952,-5.051,-23.429,-9.974,-6.261,6.527,-13.781,0.722,-54.295,-10.908,-38.941,-62.913
-2.753,28.221,-11.252,9.015,2.490,-9.322,-23.478,-16.937,-19.888,7.750,-7.460,-2.946,-64.916,-10.609,-33.640,-62.107
-0.109,22.108,-17.092,5.188,2.276,-15.660,-22.118,-23.095,-9.845,-1.985,5.095,1.985,-54.482,0.718,-14.123,-45.920
-5.710,15.522,-2.702,-0.962,16.416,-17.680,-17.468,-18.321,-18.964,-11.618,0.460,-3.296,-53.868,16.653,2.163,-40.437
-6.523,3.115,0.188,3.208,26.241,-10.897,-27.365,-22.420,-15.833,-22.199,0.425,-4.664,-41.251,26.998,16.182,-25.000
-6.203,-1.320,-11.188,7.946,33.938,-4.612,-38.809,-19.517,-27.016,-23.123,9.576,-7.298,-39.189,35.469,22.283,2.113
-10.079,-7.705,4.460,-2.276,34.867,10.084,-19.723,-12.177,-22.221,-34.230,14.323,-8.184,-28.672,41.345,25.432,8.105
-11.049,-6.551,10.722,-9.005,41.597,-4.553,-19.771,-5.201,-13.071,-25.608,10.487,-1.723,-19.566,47.794,34.427,14.076
-7.711,-19.918,22.268,-21.801,38.904,-9.293,-5.865,-4.591,-13.390,-21.199,0.978,-10.313,-3.667,53.571,40.869,20.134
-6.421,-25.731,32.337,-16.109,39.878,-24.202,0.643,6.553,-15.337,-15.750,13.136,-5.627,-0.377,45.905,36.827,39.598
-10.725,-19.138,46.122,-10.948,32.604,-21.948,8.450,12.741,-19.953,-11.410,17.674,-12.859,4.933,29.270,33.877,45.394
-0.826,-13.908,36.109,-19.009,27.009,-16.978,20.022,7.264,-18.891,-12.393,9.714,-10.756,7.858,17.901,25.860,43.855
5.425,-9.589,43.846,-19.626,18.856,-21.472,17.470,15.378,-15.361,-0.791,17.988,-5.062,11.639,1.610,24.206,37.290
7.341,-6.430,36.281,-5.941,9.948,-26.133,16.341,19.602,-2.072,-5.966,13.972,-1.946,22.386,-4.361,9.152,33.435
15.289,-2.399,26.035,-7.875,3.190,-19.472,8.520,21.819,5.986,-4.787,24.158,2.856,15.651,-16.905,1.821,27.325
10.674,3.253,18.865,-9.882,2.068,-16.736,4.675,24.775,14.384,-7.328,33.073,4.060,18.991,-28.064,-2.810,20.563
8.481,4.707,12.505,-6.340,-0.362,-6.244,5.037,18.462,29.205,-9.948,26.862,12.355,24.720,-39.118,-5.470,16.780
15.102,6.415,2.162,11.022,-11.303,-8.143,-8.792,17.599,37.387,-11.253,18.049,34.530,25.739,-42.419,-12.330,-4.347
10.947,11.379,2.646,13.273,-0.738,12.532,-7.690,19.638,29.405,-4.935,10.084,39.959,32.639,-39.565,-18.147,-17.633
4.364,11.868,1.482,19.420,0.291,12.545,-21.464,21.629,31.170,-2.703,7.045,28.918,29.757,-37.763,-29.580,-21.269
-7.185,8.439,-3.709,25.734,-0.403,15.959,-18.685,12.299,26.351,8.535,9.254,25.248,15.438,-35.344,-26.493,-28.594
-17.659,14.580,-4.089,16.948,5.517,23.680,-22.770,18.403,11.277,11.997,5.747,25.269,6.170,-35.263,-31.805,-26.559
-27.334,8.809,-0.572,5.040,9.184,18.418,-29.437,17.871,2.786,18.351,-8.514,27.340,8.112,-33.587,-35.184,-32.467
-27.521,15.248,-5.004,1.570,9.826,16.672,-27.757,26.375,3.686,18.489,-19.085,19.492,-8.210,-25.471,-30.080,-34.919
-24.557,13.796,-11.098,-7.528,10.570,7.538,-33.946,19.516,-6.000,17.311,-23.624,7.974,-16.208,-20.291,-29.055,-28.884
-21.609,19.618,-7.828,-0.785,13.171,11.108,-33.583,15.844,-21.606,11.960,-23.724,5.739,-23.347,-6.740,-29.775,-29.040
-22.808,23.018,1.771,-8.124,6.617,5.198,-24.643,3.011,-21.475,4.656,-28.224,1.617,-36.747,1.543,-25.057,-23.976
-19.065,28.252,-0.524,-12.692,14.496,-9.293,-34.793,0.022,-17.717,2.392,-14.331,-13.002,-55.428,-0.082,-16.877,-34.027
-12.895,22.614,5.794,-12.519,10.382,-13.103,-32.112,-6.434,-12.909,-3.413,-9.303,-6.784,-57.612,3.064,-11.422,-35.902
-10.222,26.984,1.312,-14.143,16.555,-11.343,-25.388,-7.840,-10.500,-6.700,-0.221,-8.521,-54.912,8.964,-0.728,-26.026
-2.002,23.234,3.468,-15.420,19.912,-15.401,-33.876,-14.454,-16.876,-14.651,15.243,-1.473,-52.402,23.269,5.859,-11.510
1.775,21.897,1.734,-11.024,21.165,-22.591,-29.944,-20.009,-17.208,-21.898,33.040,-7.852,-35.113,28.053,22.318,1.012
8.076,13.531,1.547,-8.091,18.824,-19.293,-40.487,-22.599,-11.386,-42.145,27.578,-6.939,-27.956,41.450,35.326,2.683
8.239,7.223,3.429,-13.124,22.627,-18.497,-30.120,-19.589,-8.759,-41.100,30.219,-6.647,-20.942,46.707,43.539,26.843
2.125,1.629,2.979,-10.545,30.906,-26.736,-14.249,-14.845,-2.500,-51.371,31.136,-18.857,-14.261,39.133,40.017,24.991
5.153,-8.845,9.959,-11.125,35.151,-23.930,-12.517,-10.527,-11.267,-39.469,28.248,-13.582,-4.992,40.649,46.114,45.825
1.382,-21.891,22.891,-9.212,34.848,-28.682,-6.060,-7.462,-5.067,-37.326,27.968,-4.551,10.633,32.793,47.079,42.833
5.096,-17.063,29.863,-13.841,30.094,-23.544,-0.635,-6.432,-2.465,-28.657,22.753,-12.274,15.353,21.922,33.613,49.086
7.624,-17.801,30.641,-15.006,21.135,-20.672,6.150,6.371,-2.674,-20.361,21.349,-12.960,23.855,18.622,23.301,55.324
6.387,-16.587,25.980,-21.401,10.473,-21.950,10.438,19.846,5.515,-5.769,21.275,-12.105,32.357,0.727,14.973,43.110
10.337,-10.246,32.350,-18.373,6.120,-14.515,10.682,21.923,-0.656,4.013,24.937,-14.198,36.086,-11.541,-1.959,40.335
12.584,-5.576,29.175,-12.662,-4.950,-16.196,5.195,32.287,9.767,7.456,29.563,-3.182,30.123,-30.393,-12.777,38.093
16.338,-1.146,20.376,-12.092,-16.244,-10.585,13.483,32.480,12.551,8.322,19.037,-1.736,25.357,-37.212,-28.920,24.284
13.787,8.431,16.209,-0.819,-18.130,2.050,10.943,21.921,20.880,12.502,16.412,10.197,18.102,-46.933,-35.526,11.248
2.908,19.884,-1.730,4.538,-22.150,10.674,0.062,14.630,30.977,18.201,14.028,17.383,15.163,-52.479,-39.843,-5.590
9.001,15.443,-5.578,14.414,-20.136,16.921,-5.234,5.945,27.631,11.987,23.771,27.605,7.061,-46.400,-42.445,-13.397
-0.495,16.287,-8.044,29.280,-18.275,10.365,-20.610,-0.588,20.874,13.192,17.774,26.679,6.216,-36.137,-38.175,-25.018
0.523,11.313,-12.948,35.245,-13.994,12.319,-21.840,-3.806,16.733,13.740,16.715,25.278,-7.252,-27.289,-30.750,-27.690
-9.166,13.719,-21.489,24.531,-11.717,24.302,-16.704,-6.175,9.697,12.392,3.973,18.942,-5.173,-14.801,-28.452,-27.998
-23.212,16.316,-19.557,22.484,5.998,15.971,-14.618,3.497,-4.548,21.194,-6.687,15.155,-14.279,-21.473,-30.875,-29.354
-27.683,16.171,-16.607,21.800,9.096,8.373,-25.493,-5.173,-12.839,19.805,-14.292,15.074,-13.760,-6.459,-28.377,-41.131
-32.706,9.922,-9.011,9.987,17.530,6.858,-23.250,-10.321,-10.046,24.458,-13.919,-3.750,-21.826,0.994,-27.706,-34.682
-40.379,12.651,-7.133,2.613,19.777,5.277,-25.851,-9.980,-15.447,21.102,-16.575,-13.358,-31.807,3.482,-28.783,-27.306
-33.562,14.671,3.669,-4.853,24.743,4.839,-22.113,-10.944,-13.276,23.077,-17.059,-9.077,-39.441,9.755,-14.704,-34.079
-22.142,12.724,2.721,-12.669,16.743,-6.742,-12.059,-16.947,-16.910,23.224,-13.122,-15.948,-40.643,15.854,-11.031,-27.400
-15.813,13.194,6.218,-16.328,13.006,-16.444,-12.231,-16.358,-27.567,7.639,-18.107,-18.613,-40.023,16.476,-4.075,-19.589
-6.045,8.026,4.905,-13.822,15.792,-26.100,-12.492,-21.088,-18.922,9.987,-1.253,-25.672,-44.746,24.254,6.393,-14.583
2.250,7.200,4.723,-19.163,14.136,-27.335,-9.905,-21.877,-18.835,-2.376,3.562,-18.761,-44.048,22.713,7.806,-10.389
17.336,4.759,4.518,-12.443,15.679,-27.890,-10.838,-21.010,-4.548,-12.162,10.001,-21.774,-29.251,30.205,10.000,-2.928
22.627,2.347,10.741,-11.905,13.486,-22.483,-14.892,-13.937,-7.749,-17.270,21.153,-26.824,-20.708,31.455,25.039,4.837
18.156,-10.825,5.837,15.939,10.865,-21.905,-15.039,-26.360,-11.158,-7.122,20.001,-13.809,-2.952,30.229,30.907,13.754
9.210,-8.942,8.089,2.265,12.109,-28.511,-12.493,-13.625,0.974,-13.227,21.677,-13.467,10.912,26.499,36.838,24.173
8.508,-9.620,9.680,-8.804,14.814,-19.684,-14.591,-13.132,0.111,-19.364,25.294,-7.558,26.396,16.638,37.167,33.767
3.854,-19.758,6.018,0.450,15.919,-12.961,-6.065,0.373,3.495,-9.618,22.086,-3.329,25.244,19.966,32.533,33.131
-5.861,-27.591,22.426,2.070,15.414,-25.170,-0.053,16.434,3.069,2.256,28.280,6.073,37.286,6.635,25.549,24.797
-4.504,-30.138,12.833,0.382,9.237,-24.114,14.943,20.928,5.012,6.599,15.746,-0.131,47.748,6.435,23.834,27.090
-6.624,-29.088,11.640,-6.657,7.182,-12.207,13.453,20.708,7.143,13.166,15.803,6.730,55.175,-13.859,6.300,16.481
-11.823,-25.517,3.602,-3.505,4.356,-13.231,18.379,27.340,4.023,12.046,-1.196,0.714,52.874,-24.720,-7.805,10.390
-16.141,-12.541,7.767,-0.191,-0.425,-15.630,25.634,32.887,11.157,12.931,-1.336,0.807,41.032,-38.799,-16.207,8.537
-14.483,-10.488,3.144,3.833,-6.095,-17.658,28.241,26.505,12.397,10.555,0.794,6.860,34.010,-48.029,-30.515,-11.869
-10.565,3.383,-10.217,8.380,-11.001,-15.234,15.096,28.796,6.057,11.741,7.231,21.605,23.669,-56.998,-30.597,-21.157
-15.766,11.123,-14.354,17.329,-15.542,-12.560,7.829,25.717,14.225,16.654,10.793,21.716,14.328,-51.880,-41.309,-27.016
-6.796,17.090,-3.460,12.699,-10.481,-15.984,5.160,8.511,12.555,13.098,0.793,13.969,3.037,-51.933,-39.817,-39.980
-15.682,20.981,-11.747,32.367,-6.358,-12.875,-7.206,6.151,3.436,8.356,4.178,29.660,2.995,-45.410,-40.178,-44.867
-26.897,17.476,-29.979,33.639,-9.492,-11.659,-18.274,4.067,2.002,8.341,5.619,18.749,-4.991,-35.521,-39.019,-57.791
-23.875,21.237,-24.584,23.741,-3.109,0.392,-18.936,-1.830,4.172,7.066,4.044,19.790,-19.468,-21.154,-31.259,-49.173
-39.947,30.708,-23.341,23.254,2.289,3.799,-24.454,-4.379,-0.225,-1.969,0.225,16.838,-19.120,-6.363,-13.808,-55.448
-42.649,23.424,-33.112,23.893,15.837,1.855,-35.339,-22.131,-6.499,3.951,-0.103,-0.680,-24.690,6.257,-14.334,-53.117
-34.636,9.455,-27.263,17.920,21.611,-13.980,-35.763,-22.728,-20.760,2.392,-4.129,-5.271,-25.262,17.470,-7.095,-50.875
-33.742,10.377,-6.401,8.710,14.561,-9.727,-28.687,-21.352,-24.694,3.972,-0.651,-11.123,-34.036,26.339,0.300,-40.613
-26.425,6.988,-5.922,1.641,22.865,-11.786,-21.884,-15.601,-25.818,7.363,0.508,-15.577,-33.612,34.527,4.211,-22.049
-24.877,-0.585,-7.574,-21.855,29.396,-17.916,-10.335,-7.827,-34.437,7.580,1.169,-22.939,-33.182,42.625,17.156,-11.790
-16.747,0.135,11.971,-24.275,26.148,-35.423,-7.201,-1.416,-25.514,6.420,7.970,-19.786,-31.457,40.184,23.919,2.640
-7.568,3.033,12.647,-34.737,26.519,-34.059,-1.834,0.406,-30.261,-3.628,11.266,-27.832,-25.798,40.342,26.173,8.075
4.847,7.606,5.388,-41.257,25.304,-37.058,-11.741,0.611,-17.819,-11.442,16.938,-21.062,-16.790,33.164,28.989,9.084
15.546,1.971,17.080,-47.007,20.150,-39.740,-6.059,-11.913,-11.960,-17.717,22.831,-13.034,-8.288,32.132,41.860,4.504
18.466,-0.488,30.522,-34.569,14.656,-34.708,-11.617,-20.866,-13.351,-10.214,29.705,-20.015,-4.298,31.473,46.832,8.046
21.102,-0.622,14.635,-25.195,11.638,-35.547,-14.770,-13.672,-1.867,-13.732,30.846,-22.521,10.285,22.697,40.293,19.197
25.257,-4.264,15.451,-3.986,8.248,-26.969,-8.426,-3.249,4.517,-21.009,29.692,-10.444,26.055,13.341,38.452,15.752
18.484,-2.179,11.699,4.699,6.146,-18.501,-4.243,1.386,8.051,-13.255,39.733,-4.891,33.374,8.943,30.573,23.300
8.002,-9.603,5.852,3.259,2.753,-16.890,-5.374,-4.345,12.101,-13.565,42.885,-0.846,40.987,3.565,29.461,17.459
14.671,-10.367,9.669,-5.143,0.652,-17.923,-6.440,0.276,16.480,-2.270,26.606,6.461,52.478,-2.905,29.417,7.189
9.074,-11.525,-0.376,7.222,3.194,-8.153,-10.696,3.720,17.250,5.598,30.145,6.577,57.109,-5.555,16.574,15.677
0.155,-14.221,2.353,-1.566,-2.151,-16.309,-3.772,12.763,15.796,18.733,24.553,-1.760,56.162,-14.185,4.256,6.555
-3.165,-13.106,-1.600,3.365,-10.285,1.914,1.215,23.271,14.316,17.969,14.887,3.931,45.654,-26.844,-14.772,1.922
-10.894,-16.138,0.820,15.560,-9.645,-1.899,-2.712,24.681,17.373,32.397,8.867,4.266,36.266,-38.088,-28.354,-14.248
-22.137,-7.077,-3.990,2.184,-10.127,8.578,-5.105,21.566,9.616,34.746,-0.546,4.885,30.116,-39.848,-37.865,-23.834
-19.045,10.497,3.368,9.095,-12.608,3.465,-1.779,20.514,9.436,35.274,-7.953,9.766,14.722,-41.695,-42.570,-21.616
-12.488,10.468,1.704,9.016,-11.676,10.537,-7.561,18.281,3.677,30.977,-15.292,9.057,4.138,-53.756,-51.258,-34.283
-10.113,17.733,-14.598,12.139,-10.071,11.639,-10.171,16.075,5.986,18.408,-16.864,10.094,-13.170,-54.036,-49.413,-41.220
-7.866,27.719,-19.330,12.706,-10.009,12.215,-24.169,5.462,0.312,14.294,-10.209,3.771,-17.516,-39.671,-46.021,-57.850
-8.108,31.278,-20.530,16.380,-3.684,7.122,-24.136,-1.286,0.648,16.746,-4.707,4.562,-23.487,-27.557,-37.851,-58.510
-11.209,28.411,-25.013,6.901,6.580,2.035,-28.748,-8.812,3.790,4.046,-3.918,6.750,-32.132,-14.848,-29.481,-55.792
-18.003,24.687,-11.743,12.415,9.030,10.714,-20.852,-9.507,0.383,3.757,1.182,6.942,-34.606,-5.621,-12.807,-60.713
-18.388,24.445,-15.693,30.190,17.269,3.209,-29.771,-12.002,-8.512,-3.691,4.853,-2.999,-29.732,13.182,1.048,-49.816
-11.848,19.197,-11.906,21.018,25.653,-1.524,-39.350,-22.605,-7.811,-15.496,-0.561,-16.031,-30.059,25.557,6.831,-31.911
-18.795,13.035,-8.245,8.203,31.677,-10.856,-34.823,-24.666,-14.708,-9.735,7.492,-21.203,-19.960,41.259,13.694,-23.441
-17.792,9.350,-8.884,4.869,36.130,-10.479,-27.360,-25.483,-17.609,-2.474,6.793,-27.303,-26.686,54.213,29.968,-14.940
-11.900,3.202,5.187,2.175,34.569,-24.061,-19.337,-13.979,-17.711,-1.204,8.151,-34.804,-27.274,55.419,34.951,-2.845
-11.064,2.208,20.648,-2.003,29.635,-35.757,-15.817,-21.770,-13.123,0.517,0.853,-47.711,-20.052,63.298,27.912,4.911
-3.480,-0.681,29.246,-6.139,30.307,-41.023,-24.317,-8.028,-14.281,5.775,9.041,-38.326,-10.276,49.398,32.519,13.349
-1.331,3.885,32.142,-18.624,28.363,-50.429,-12.346,-12.863,-9.579,2.420,16.878,-38.831,-7.264,42.609,23.762,22.617
8.498,2.965,29.350,-9.378,28.534,-44.341,-8.413,-5.582,-0.792,-2.678,20.554,-41.959,-0.286,36.841,31.728,27.580
20.390,-4.117,26.754,-9.690,22.488,-37.148,-3.773,3.778,6.028,0.901,27.134,-30.358,7.519,23.300,29.464,22.762
24.086,-0.997,17.122,-6.111,11.299,-38.935,0.301,8.229,9.821,4.520,42.331,-24.190,13.849,15.666,22.294,21.854
25.634,1.428,21.999,-5.824,9.068,-33.085,2.213,0.877,12.081,-0.539,27.567,-13.876,22.990,0.511,17.851,25.382
21.400,2.743,18.918,0.426,1.540,-16.439,-3.918,0.851,17.005,0.590,33.689,-6.794,32.304,-9.751,16.815,11.963
25.730,-2.310,13.150,15.031,-3.533,-14.577,-4.403,6.500,23.577,-1.909,25.711,-11.761,35.985,-10.397,14.980,15.726
14.411,-4.084,15.184,20.970,-9.739,-10.091,-3.500,9.236,22.286,5.614,23.000,2.982,40.924,-18.508,10.906,4.464
7.598,-8.294,12.963,34.106,-9.145,-3.144,-10.385,13.151,27.108,6.012,13.153,17.816,40.715,-16.183,6.260,-5.398
2.852,-7.825,1.418,30.872,-4.679,5.986,-11.106,21.243,23.416,12.226,6.926,15.854,44.138,-19.803,-7.151,-5.754
5.027,-4.218,5.544,31.027,0.318,9.151,-18.273,16.227,16.598,25.110,3.502,20.156,45.092,-26.608,-21.432,-6.819
-1.782,-3.646,-7.523,28.492,2.397,8.079,-20.201,15.881,13.961,31.483,-16.194,12.618,33.966,-24.294,-34.062,-14.593
-10.879,6.607,1.877,31.327,-1.875,15.220,-20.159,14.974,10.584,39.295,-19.281,4.259,28.206,-26.313,-41.990,-25.196
-14.860,14.565,7.245,27.063,0.394,5.724,-30.277,13.395,9.059,36.350,-30.192,11.690,20.130,-27.422,-36.511,-20.942
-16.656,25.731,-5.313,25.951,-0.317,7.321,-23.951,17.274,5.722,38.840,-26.707,9.768,5.333,-27.304,-30.035,-39.599
-19.444,18.393,-21.930,25.430,1.990,8.804,-13.393,11.477,1.636,28.648,-27.585,-1.733,-0.808,-25.085,-37.472,-49.267
-16.709,28.686,-21.453,20.813,-3.083,2.298,-21.143,7.203,-5.473,20.005,-26.472,-6.295,-9.623,-16.637,-24.329,-53.976
-19.433,34.357,-15.071,21.031,5.821,2.053,-27.039,-1.071,-9.578,18.429,-11.791,1.431,-25.130,-2.203,-24.580,-61.395
-14.291,31.136,-16.069,21.405,0.371,-0.193,-26.778,-9.943,-15.488,14.742,-13.143,7.033,-30.746,3.743,-13.889,-53.824
-10.706,33.969,-26.777,21.073,9.398,-3.673,-36.847,-19.840,-11.591,-0.381,-5.837,3.247,-41.865,17.492,-5.449,-43.518
-6.170,29.292,-31.151,29.730,19.594,-9.183,-41.523,-27.975,-9.376,1.110,-3.174,7.892,-44.626,16.483,11.111,-40.904
0.471,15.062,-20.321,10.556,28.597,-12.434,-37.075,-29.662,-8.546,-9.009,3.839,-2.268,-27.876,30.674,24.616,-29.616
-8.212,13.699,-21.604,1.698,30.297,-6.337,-38.462,-25.820,-11.950,-6.825,7.581,-5.127,-21.775,40.587,34.832,-17.698
-7.358,2.983,-19.531,2.189,27.216,-9.742,-29.082,-22.118,-1.034,-7.872,17.285,-19.318,-12.495,44.733,45.815,-5.743
1.276,-15.133,1.262,-2.342,29.827,-15.961,-29.949,-23.881,-1.464,-11.795,15.956,-14.259,-3.701,43.280,47.200,4.444
3.578,-11.630,10.602,-8.099,29.836,-41.155,-24.088,-6.143,-2.158,-6.886,4.296,-17.569,18.923,51.692,51.528,11.302
5.149,-16.014,15.783,-6.998,25.270,-29.446,-9.371,1.666,-6.700,-0.929,11.989,-19.101,22.661,38.528,57.451,23.962
13.299,-22.966,17.953,-15.431,18.440,-34.498,1.764,7.252,1.742,-2.363,12.663,-18.069,28.160,23.907,45.969,31.175
14.585,-22.111,25.790,-9.761,11.036,-27.008,10.175,11.301,8.628,1.036,20.880,-18.118,25.572,20.471,34.288,37.763
23.445,-16.334,22.598,-6.603,6.467,-27.426,14.696,17.194,9.281,-0.213,25.609,-18.565,32.075,11.552,28.713,34.100
29.402,-15.816,20.535,-6.919,-3.334,-22.453,20.398,19.436,-1.069,-2.863,14.768,-12.334,34.286,-11.531,30.477,31.247
18.818,-7.697,5.391,-0.704,-13.197,-19.273,28.935,21.181,15.378,1.216,18.324,-0.787,36.657,-20.824,19.398,17.833
18.454,-7.569,-1.506,4.548,-23.214,-26.616,8.712,20.005,12.233,9.721,24.599,2.611,38.006,-24.706,10.086,1.589
22.536,4.049,-10.040,11.202,-23.698,-14.808,-0.490,11.831,21.968,10.617,30.106,9.124,37.419,-30.198,8.932,4.480
13.166,5.005,-14.739,6.891,-15.500,-11.615,1.014,17.360,24.838,5.995,22.707,16.614,34.584,-36.353,5.084,-6.302
13.097,3.413,-17.975,13.266,-14.083,8.192,2.009,12.152,20.273,1.002,22.403,28.016,37.744,-44.114,-4.860,-16.631
10.829,-0.330,-22.021,22.599,-10.704,2.000,-3.736,2.978,23.724,-0.830,12.797,31.314,35.456,-40.881,-5.334,-19.660
-2.174,2.436,-26.331,23.031,-10.141,8.344,-7.209,7.272,21.023,11.348,-4.981,20.153,33.701,-46.123,-18.998,-14.421
-0.977,4.562,-33.422,26.468,-7.552,8.017,-8.948,18.222,11.783,22.930,-0.307,27.913,26.741,-37.720,-16.366,-23.253
-7.738,10.018,-31.994,25.741,0.305,3.546,-16.496,14.420,0.482,23.333,-9.068,18.546,25.987,-26.366,-24.307,-25.345
-16.641,12.113,-29.531,19.177,-2.014,-4.491,-15.882,19.025,-12.581,21.618,-9.138,7.662,14.054,-19.269,-22.749,-31.581
-17.438,11.185,-34.574,12.837,2.667,3.240,-15.482,10.873,-16.722,21.482,-20.048,-2.717,-7.690,-19.315,-30.575,-31.875
-23.503,16.602,-33.192,16.734,6.197,2.889,-25.154,8.681,-18.501,20.446,-20.615,-3.089,-24.404,-8.318,-27.680,-28.829
-18.967,26.840,-18.432,6.931,5.680,-2.993,-14.808,6.727,-17.300,14.377,-22.303,-17.759,-41.527,-2.032,-16.672,-39.171
-8.586,23.548,-20.462,-2.156,-0.807,-12.505,-13.182,-2.772,-14.828,8.497,-17.732,-7.500,-50.179,1.284,-15.894,-36.531
4.849,25.260,-16.427,1.266,3.769,-8.918,-14.773,-11.716,-15.570,-0.683,-13.313,-5.819,-48.481,11.536,-14.761,-21.257
5.847,23.205,-13.508,5.583,6.338,-4.122,-11.016,-13.973,-17.596,-5.309,-4.898,-15.351,-40.931,16.387,-2.843,-16.581
5.513,17.017,-16.119,-5.268,2.952,-1.755,-16.269,-23.277,-15.505,-13.612,8.883,-8.895,-39.615,24.583,13.048,-10.478
10.383,6.652,-8.575,4.974,9.470,-6.271,-22.701,-28.715,-6.581,-19.014,16.802,-0.734,-31.774,31.559,27.693,4.760
13.304,-4.639,-3.796,5.574,6.894,-8.757,-9.726,-17.363,-0.013,-27.980,24.760,-10.157,-13.686,40.252,42.227,15.748
12.938,-8.908,-12.163,3.144,21.679,-5.192,-9.695,-18.767,2.392,-36.208,28.811,-6.981,-1.750,39.812,46.835,26.386
16.536,-13.582,-7.878,0.468,21.071,-9.257,-12.486,-17.818,-5.989,-35.321,34.434,-5.016,2.119,40.509,50.924,32.390
14.043,-12.903,0.526,-9.005,22.951,-8.294,-0.192,-14.420,-5.288,-21.772,25.100,-8.817,16.389,40.545,54.167,40.659
13.370,-19.502,8.565,0.702,22.557,-10.910,11.845,-4.010,-9.298,-15.436,16.659,-4.553,36.078,34.522,49.116,49.117
19.419,-17.984,12.857,-1.724,25.152,-5.023,3.847,5.254,-6.893,-12.600,22.271,-4.561,37.979,22.238,43.620,50.690
17.645,-27.189,18.783,-2.306,13.153,-12.409,0.825,15.628,-1.147,-0.735,21.715,-9.379,40.703,15.655,27.088,51.317
24.532,-22.311,10.537,8.035,10.863,-20.504,13.313,18.620,-8.053,5.310,19.265,-1.933,43.814,9.893,18.919,50.855
20.671,-14.600,9.149,-9.175,2.925,-13.214,11.712,25.165,1.364,11.271,16.400,-2.010,55.839,-4.901,12.583,37.780
23.563,-6.492,5.403,1.230,-2.703,-22.093,10.298,23.148,11.382,12.886,17.771,-5.707,53.832,-18.355,0.767,30.411
26.537,-4.018,12.834,6.643,-10.073,-14.995,1.090,22.548,22.409,18.844,15.661,4.087,43.049,-23.199,-6.633,26.694
28.762,3.223,-1.127,12.188,-18.168,-8.621,-1.001,20.828,27.306,7.444,9.289,13.059,32.505,-37.413,-10.052,16.137
25.564,6.646,-1.802,22.936,-17.842,8.019,0.598,21.615,30.206,1.001,12.622,20.357,30.185,-37.070,-15.907,-6.005
26.734,6.084,-18.764,23.668,-17.563,10.237,0.592,13.558,23.071,-4.942,0.576,17.280,19.808,-40.554,-21.698,-15.937
5.968,5.545,-18.646,39.113,-12.740,16.967,-5.942,9.969,20.396,2.886,5.059,11.806,15.603,-29.401,-20.239,-30.065
-0.347,2.560,-25.881,36.839,-5.942,10.527,-4.480,2.414,14.512,2.174,9.161,17.964,4.567,-25.967,-20.752,-39.043
-12.690,5.746,-34.076,25.725,-1.245,19.174,-15.950,-9.587,5.368,6.093,15.629,14.285,0.440,-16.141,-24.296,-37.890
-11.588,4.460,-33.230,30.557,6.215,28.336,-26.296,8.430,-2.402,1.497,-1.177,17.238,-3.459,-3.914,-30.737,-42.756
-20.931,8.522,-33.386,30.064,10.441,21.486,-32.252,12.735,3.316,10.516,-7.591,6.883,-13.629,12.049,-22.615,-35.683
-17.243,14.380,-23.705,25.137,19.977,10.257,-17.595,5.995,-4.733,15.595,-17.550,-2.278,-13.237,12.620,-16.825,-27.982
-18.104,13.975,-13.431,24.954,25.498,-2.163,-18.817,5.231,-8.956,18.292,-21.549,-7.565,-23.263,16.885,-18.462,-23.909
-10.221,13.927,-2.194,1.403,24.692,-5.333,-21.762,-1.976,-7.259,21.870,-26.740,-22.122,-30.736,31.909,-15.407,-17.199
-8.675,7.386,-3.219,-11.084,22.601,-20.665,-25.806,1.157,-19.309,16.909,-14.704,-27.727,-34.419,30.619,-7.256,-7.918
-4.113,9.598,-10.054,-18.144,20.991,-25.484,-26.901,-7.329,-25.221,8.317,-6.423,-26.339,-34.038,42.052,3.096,2.375
5.942,14.573,-6.713,-22.003,26.376,-22.219,-22.997,1.641,-11.505,2.357,-2.943,-25.459,-39.341,40.201,15.260,3.644
20.516,14.137,-2.977,-22.066,11.695,-24.917,-4.368,-12.516,-16.534,-3.720,8.093,-20.511,-38.808,40.331,18.573,5.156
29.884,15.072,-3.905,-14.264,9.824,-29.723,-12.005,-19.042,-21.287,-12.506,4.288,-18.405,-30.152,36.959,36.630,6.041
25.987,3.729,-10.748,-7.840,18.297,-27.759,-13.225,-20.539,-14.818,-10.522,17.207,-17.640,-9.230,42.604,42.732,8.575
27.472,-1.800,-3.911,-7.690,14.282,-19.282,-11.331,-24.045,-5.704,-20.974,23.519,-6.694,8.059,42.018,41.139,19.365
22.758,-9.538,-5.446,4.623,20.486,-9.351,-2.030,-29.816,0.242,-27.161,18.313,-11.350,10.795,39.886,46.262,28.708
28.161,-5.807,13.122,6.623,17.789,-11.200,-5.960,-17.284,5.857,-20.013,22.787,-0.858,15.119,29.912,51.673,27.567
30.931,-13.846,15.688,-4.955,12.552,-9.017,-1.934,-4.031,2.832,-15.901,21.012,-1.056,31.494,25.605,46.492,39.916
25.262,-25.186,10.913,-14.789,11.641,2.977,3.011,14.875,9.723,-17.213,15.353,3.969,43.219,21.612,37.839,34.913
14.482,-20.470,18.218,-7.245,5.874,4.542,7.985,15.021,11.137,-7.239,8.732,4.269,45.975,8.070,26.591,38.799
11.352,-27.665,4.229,-2.756,5.635,2.321,18.872,15.402,12.987,10.591,-2.412,0.380,46.551,-3.762,10.715,30.879
11.440,-21.802,9.094,3.444,1.807,2.669,14.074,28.733,13.315,23.475,1.162,-9.928,56.186,-17.421,-2.579,10.360
10.060,-11.028,12.720,2.056,-2.348,6.009,18.039,26.798,15.036,23.548,-9.207,-8.645,49.479,-31.827,-8.356,4.226
13.966,-10.080,8.802,4.029,-13.081,6.181,21.871,28.767,9.934,26.751,0.183,-12.042,29.195,-31.169,-22.397,2.022
8.428,-0.398,8.327,10.554,-19.096,13.350,13.909,22.044,11.827,29.816,-7.809,-1.029,23.823,-37.949,-30.847,-12.643
9.070,6.815,-3.550,6.201,-25.351,5.505,9.400,18.907,30.696,30.622,0.363,13.269,22.682,-43.093,-34.530,-26.308
11.394,10.070,-10.170,8.212,-19.432,13.320,-0.077,10.873,23.875,22.738,-2.056,12.254,17.493,-45.265,-35.917,-38.780
-2.855,17.654,-23.359,12.708,-15.228,17.329,-8.556,7.163,20.324,17.526,-1.240,6.754,6.598,-41.256,-29.087,-55.116
-14.012,14.110,-24.477,18.454,-6.582,27.477,-21.594,-0.671,15.714,14.313,-7.969,15.172,-8.726,-25.966,-26.858,-52.813
-13.183,12.107,-18.191,27.595,-2.787,18.175,-18.074,-4.860,10.524,14.353,-14.759,14.042,-9.493,-9.955,-26.230,-46.687
-17.943,10.996,-23.677,27.717,7.597,26.189,-19.772,-5.328,13.089,3.750,-11.789,19.594,-2.516,-7.715,-16.364,-51.349
-25.455,7.548,-14.338,16.283,16.905,34.799,-31.796,-6.476,3.183,11.760,-6.913,2.641,-11.924,2.356,-6.746,-43.360
-29.877,8.603,-22.070,16.567,17.134,25.484,-34.606,4.362,-10.076,11.066,-9.599,-5.466,-27.058,15.133,-9.080,-34.603
-29.511,8.623,-13.708,12.181,24.362,20.710,-35.241,1.885,-16.157,7.329,-12.411,-16.988,-27.236,34.695,-5.484,-19.685
-17.630,3.515,-5.565,3.647,33.186,4.948,-27.392,4.136,-18.910,8.206,-4.606,-10.671,-30.597,38.702,-7.338,-10.487
-15.861,2.153,0.143,-5.897,29.059,-10.870,-25.938,3.525,-14.782,5.287,-11.023,-20.512,-19.665,46.491,-4.209,-9.593
-11.123,-2.378,8.093,-18.294,28.432,-11.916,-18.619,3.764,-17.713,-3.719,-1.971,-27.378,-19.698,46.006,5.349,4.707
-1.191,-6.887,8.642,-32.193,22.852,-21.796,-23.711,1.254,-18.491,0.115,0.073,-34.721,-25.332,33.828,17.492,15.718
4.860,-3.405,-0.752,-32.236,17.800,-27.473,-10.876,-0.458,-17.843,-9.774,5.319,-34.738,-20.096,38.403,19.288,18.626
12.926,-3.762,5.146,-30.501,11.155,-20.161,-9.317,-0.853,-22.039,-6.234,12.519,-30.714,-10.535,36.411,24.413,18.140
17.439,0.352,4.887,-27.325,1.614,-18.252,-17.201,-4.016,-8.759,-14.156,10.650,-27.806,-3.092,30.601,29.016,17.408
18.011,2.980,9.727,-8.734,8.504,-19.241,-12.478,-3.493,3.003,-16.606,16.880,-26.772,5.491,25.532,42.463,29.764
21.561,-3.779,-1.444,2.509,7.655,-19.327,-15.710,2.796,22.092,-24.746,17.083,-15.401,4.587,21.171,43.700,31.466
24.109,-2.158,0.188,-5.826,11.945,-17.106,-10.595,11.174,22.394,-29.684,25.694,-5.537,15.256,13.242,40.396,39.225
24.340,-8.067,2.316,1.698,11.932,2.017,-11.885,8.878,23.209,-17.590,18.905,8.589,31.437,0.990,37.642,35.099
19.008,-16.772,-6.382,-4.375,11.472,-0.531,-7.650,6.210,16.219,-12.234,8.237,16.970,37.563,-9.396,33.817,35.706
14.535,-16.293,3.068,9.348,7.019,2.444,0.895,13.542,16.629,-7.133,0.588,17.848,53.567,-17.481,21.394,21.427
-2.587,-12.518,-7.834,6.198,6.286,3.475,5.729,30.556,18.083,8.237,-1.766,10.882,63.012,-14.587,3.874,26.862
1.884,-12.835,-2.539,5.055,3.971,12.232,6.426,40.421,15.758,16.838,-5.595,11.590,50.225,-21.389,-2.376,14.889
-2.069,-9.775,-7.684,8.706,1.697,13.745,7.764,41.547,6.042,22.335,-12.373,0.591,37.669,-22.315,-16.738,10.551
-11.873,-0.180,-7.485,15.928,-9.984,12.745,11.611,39.595,13.095,27.337,-18.171,12.644,29.461,-37.747,-35.818,-2.187
-2.219,6.423,-6.787,15.209,-9.053,21.841,4.698,38.066,18.311,28.470,-28.267,14.105,17.312,-36.898,-41.966,-15.538
-2.151,23.733,-14.569,16.514,-16.749,10.503,1.065,29.946,14.553,26.854,-25.869,12.012,-2.956,-40.635,-41.619,-26.567
-12.448,20.029,-12.323,19.313,-15.533,15.519,-5.185,23.748,16.511,22.543,-22.113,15.232,-14.404,-45.858,-41.604,-33.931
-17.593,28.004,-28.340,36.548,-17.940,25.653,-13.503,12.102,13.845,12.852,-14.327,10.684,-18.645,-31.838,-34.551,-44.512
-21.308,32.073,-22.105,41.639,-14.361,20.949,-5.819,1.565,12.662,7.022,-16.472,4.053,-29.491,-18.884,-32.421,-44.668
-15.880,28.981,-14.852,35.881,-7.226,14.140,-25.541,-6.356,7.267,2.677,-10.990,6.865,-37.548,-7.852,-29.548,-42.410
-10.945,24.613,-20.212,19.644,2.088,18.829,-32.548,-6.589,4.606,-5.680,-12.677,-4.052,-37.857,-3.549,-18.872,-42.316
-16.851,19.387,-18.562,16.736,6.619,9.050,-31.678,-10.393,4.976,-8.916,-17.174,2.638,-41.750,9.728,-15.167,-34.730
-18.016,9.200,-16.890,8.029,21.321,21.898,-26.739,-4.338,6.709,-11.330,-11.966,8.414,-42.875,23.775,-1.505,-21.933
-17.719,3.204,-8.875,-2.624,28.737,6.277,-17.759,-6.093,-3.366,-2.425,-18.131,-1.211,-20.745,42.594,11.616,-0.063
-14.103,-5.203,-0.375,-13.090,41.479,-0.425,-22.418,-7.427,-14.054,-8.247,-14.659,-15.662,-26.367,48.960,27.748,7.517
-15.864,-9.491,13.316,-11.522,35.442,-3.639,-7.170,-7.640,-18.565,-2.438,-17.355,-12.025,-22.670,47.789,26.507,19.174
-8.553,-11.372,12.164,-18.171,26.831,-6.113,3.795,-12.541,-15.824,1.970,-7.527,-21.202,-15.968,44.306,33.834,21.640
-6.407,-10.860,19.570,-19.222,30.345,-2.912,11.177,0.937,-19.829,-0.495,-1.631,-25.168,-14.225,38.915,34.255,35.793
1.775,-12.292,22.921,-24.641,23.945,-17.123,13.108,-0.938,-15.473,-2.036,0.720,-30.759,-11.175,37.147,32.132,34.511
16.892,-9.040,19.528,-31.538,14.387,-23.245,23.992,0.847,-9.227,-5.236,5.398,-29.280,-0.499,27.514,33.714,41.572
6.937,-9.066,21.818,-18.339,2.844,-18.561,18.302,2.656,-5.414,-11.643,10.429,-36.141,17.397,19.259,27.889,48.793
16.445,-11.023,35.291,-19.225,1.712,-19.495,23.645,3.021,3.771,-19.146,14.757,-22.304,12.737,6.338,25.380,46.553
19.976,-8.286,18.695,-8.618,-2.525,-15.542,19.483,6.430,15.304,-15.896,14.570,-12.997,26.437,-9.451,18.493,38.589
25.748,-5.046,16.846,3.597,-10.081,-4.345,17.059,4.421,18.306,-12.358,11.316,-8.731,29.273,-13.384,15.886,39.370
23.492,-6.707,3.865,2.724,-13.411,-2.533,6.583,17.285,21.565,-11.068,18.387,-2.876,32.528,-16.803,17.182,26.834
23.292,-5.984,-14.356,1.527,-11.606,-5.639,1.337,20.169,21.143,-13.504,19.754,8.275,46.601,-19.148,7.246,32.643
14.225,-8.335,-14.503,5.317,-3.588,9.063,0.105,17.352,24.085,-10.349,6.339,0.425,45.082,-23.624,0.695,25.762
11.798,-7.688,-13.384,12.893,-4.795,5.091,2.243,19.471,21.631,-10.383,-5.557,10.363,39.360,-26.403,-11.879,11.617
10.704,-2.165,-16.900,2.152,-6.403,18.086,5.388,18.240,17.000,-1.353,-7.864,7.006,33.946,-24.868,-18.788,7.619
0.370,-1.190,-16.608,7.200,-7.802,19.912,4.146,27.523,6.594,11.706,-6.048,14.735,32.644,-38.387,-29.134,-1.738
-1.920,-1.860,-16.955,1.348,-1.042,17.572,7.603,37.745,0.435,18.712,-19.011,17.893,29.205,-32.763,-41.630,-8.219
-16.135,9.171,-21.458,-2.592,0.459,23.960,4.290,33.762,-10.091,19.349,-14.566,8.706,18.197,-36.915,-37.371,-20.120
-21.157,9.245,-10.849,2.734,0.670,18.018,3.822,28.063,-6.347,21.479,-13.372,4.996,3.698,-28.803,-43.447,-28.808
-13.567,14.776,-14.389,-2.296,0.833,16.477,-1.854,20.697,-0.130,12.147,-14.299,10.055,-6.925,-27.192,-41.041,-36.217
-8.769,21.122,-17.530,0.400,1.072,7.644,-7.286,15.149,-5.375,7.305,-17.689,10.553,-22.408,-25.104,-36.606,-42.313
-13.228,27.137,-28.074,-6.266,1.385,11.834,-2.361,4.843,-20.644,18.393,-8.508,5.729,-34.785,-15.109,-35.908,-43.003
-10.057,27.111,-30.063,1.860,3.616,11.219,-7.763,-5.511,-9.507,5.916,-1.622,-3.434,-42.883,0.929,-24.235,-38.382
-9.883,26.183,-32.584,7.122,8.554,3.294,-19.749,-0.524,-11.131,-7.348,11.980,-3.804,-43.230,5.817,-16.237,-31.959
-13.245,14.035,-33.350,0.154,18.203,-7.308,-15.899,-8.213,-8.737,-21.558,10.369,-3.643,-39.120,20.560,0.123,-21.142
-6.748,16.050,-28.694,-7.970,22.475,-9.558,-20.366,-17.983,-6.361,-20.413,13.938,-0.992,-36.706,29.995,11.192,-2.645
1.805,6.962,-14.314,-4.363,27.930,-18.504,-21.874,-18.224,-2.027,-28.330,17.683,-11.315,-31.206,40.603,31.418,4.673
6.408,-4.644,-10.372,-3.778,33.058,-7.444,-15.260,-16.652,1.845,-25.650,15.754,-15.356,-13.163,44.242,40.930,12.674
-1.424,-12.313,-2.708,-5.710,38.620,-8.221,-4.782,-14.874,-6.484,-22.732,21.452,-6.722,0.695,47.814,39.606,21.264
8.690,-24.877,-3.937,-9.261,36.031,-13.547,-2.180,-2.085,-17.338,-18.154,15.615,-13.140,6.567,43.162,40.955,30.828
16.053,-22.902,5.455,-12.669,31.574,-23.730,19.638,2.912,-6.544,-24.177,11.779,-36.393,16.203,35.282,37.681,40.055
15.872,-18.689,13.727,-26.703,29.007,-26.582,7.071,10.276,-10.965,-12.235,10.038,-23.921,18.831,25.148,29.754,52.027
16.695,-11.732,19.773,-24.392,18.845,-36.424,18.080,23.224,-7.227,-8.327,9.554,-24.530,17.550,23.749,28.963,50.354
26.774,-9.598,10.440,-21.542,3.114,-32.652,11.968,28.491,2.072,-3.419,7.793,-15.141,23.790,12.310,15.772,55.729
22.790,-12.071,13.394,-16.686,-1.153,-21.588,12.111,24.824,9.045,3.407,14.219,-19.797,28.940,0.173,-2.049,54.811
25.019,-10.364,16.744,-9.687,-0.518,-24.744,9.500,21.489,15.441,1.035,16.169,-16.066,29.402,-9.763,-2.178,45.561
27.985,-8.664,5.311,-2.985,3.141,-22.408,6.255,21.307,29.832,-1.934,15.847,-2.530,32.033,-23.924,-11.206,28.450
23.315,-2.291,-3.665,11.781,-13.161,-6.625,8.588,14.200,28.807,-0.497,25.358,10.098,33.015,-29.077,-15.194,12.404
21.464,2.627,-5.215,18.727,-11.538,11.483,-1.111,19.846,29.053,-4.911,16.315,19.175,33.803,-38.196,-11.236,6.740
11.640,4.258,1.393,19.779,-13.283,9.117,0.791,21.448,37.229,2.046,15.278,26.685,40.377,-37.470,-16.392,6.004
9.836,4.739,-10.774,23.208,-7.789,3.691,-11.813,17.017,42.942,5.130,4.793,26.650,35.304,-35.861,-28.363,-15.154
1.378,4.557,-23.294,32.540,-4.908,11.392,-17.070,19.549,32.235,7.915,3.290,41.169,28.622,-31.364,-29.538,-16.306
-8.914,11.170,-20.266,28.170,0.430,16.349,-20.142,18.337,26.616,11.394,-6.765,32.549,17.050,-30.320,-27.807,-12.701
-19.346,0.123,-20.347,27.958,1.666,12.430,-17.919,26.856,15.139,13.275,-12.724,12.952,14.620,-32.493,-36.571,-21.589
-18.260,4.268,-21.685,18.660,3.572,12.536,-19.441,23.364,10.781,16.635,-13.289,3.624,2.222,-22.280,-42.513,-20.093
-23.315,11.268,-17.702,13.191,11.200,9.107,-20.526,19.417,0.795,18.712,-16.929,1.558,-9.981,-21.516,-40.298,-27.712
-24.622,9.300,-13.453,0.665,21.089,2.858,-21.086,13.493,-7.377,20.037,-29.880,-7.162,-19.990,-21.205,-41.704,-27.057
-21.680,10.279,-14.225,7.162,12.457,-9.328,-19.582,16.451,-13.581,11.263,-25.788,-5.511,-31.765,-11.995,-33.719,-26.072
-12.543,15.671,-8.075,-2.124,16.424,-2.579,-22.883,18.488,-10.815,6.350,-16.567,-22.165,-34.061,-1.664,-24.898,-29.350
-4.693,23.517,-12.080,-3.691,20.936,-2.991,-23.285,7.673,-17.288,1.577,-9.481,-17.931,-37.386,6.915,-14.632,-32.184
-4.695,26.153,-28.942,-1.121,21.755,-1.813,-24.860,15.714,-10.379,-11.405,-6.553,-9.251,-30.715,8.305,-8.839,-23.901
5.457,15.309,-25.310,5.980,25.451,-7.191,-20.549,-0.397,-8.657,-21.190,-0.862,-19.242,-32.351,24.260,2.771,-20.768
5.713,11.349,-28.668,-7.038,26.631,-18.933,-23.665,-15.320,-1.409,-26.272,2.391,-11.208,-14.824,33.010,20.506,-9.463
0.993,-2.070,-16.217,-1.983,27.347,-12.551,-25.408,-12.343,-1.834,-29.470,9.863,-23.740,-6.895,35.034,32.212,8.321
-1.129,-12.115,-6.072,-1.814,31.099,-5.870,-14.256,-16.239,-6.004,-34.872,10.432,-20.637,-2.197,32.227,35.781,14.914
-0.083,-14.680,1.296,5.524,30.050,-6.695,-13.123,-12.968,-4.215,-35.671,8.615,-15.948,6.742,43.019,46.610,31.757
2.608,-20.335,1.424,10.832,34.384,-15.945,-8.206,-5.573,-6.165,-32.634,10.107,-14.350,22.983,35.584,52.546,42.553
3.945,-27.265,4.449,-0.913,36.055,-16.578,3.865,1.471,-5.928,-24.231,8.321,-26.518,33.538,25.492,40.193,43.883
1.934,-32.940,15.511,-2.285,27.740,-15.042,11.211,8.606,-6.549,-14.023,2.098,-22.709,42.816,21.326,27.225,49.085
4.504,-34.651,24.273,-2.105,24.632,-16.827,11.004,19.917,-3.419,-12.941,1.291,-16.898,34.714,17.448,6.837,50.619
7.115,-30.363,18.851,5.437,11.211,-16.971,15.822,22.605,-3.568,-7.354,-1.328,-21.072,39.310,-3.076,-2.391,43.349
17.661,-30.394,20.294,-9.105,11.813,-12.657,25.371,35.160,7.498,-0.696,3.408,-21.524,42.068,-17.952,-8.435,42.710
12.781,-21.942,11.123,2.368,0.268,-18.650,19.716,41.341,17.346,10.904,2.445,-13.576,40.218,-27.052,-16.489,30.725
14.544,-16.291,10.871,8.328,-6.331,-13.899,12.176,31.781,11.489,9.875,-6.343,-0.304,35.730,-43.012,-25.823,6.027
13.953,-11.116,1.375,1.947,-10.022,-12.238,3.722,28.702,15.953,13.129,-5.309,7.392,30.724,-46.725,-38.957,-3.141
7.333,-5.318,-9.983,7.628,-16.857,-15.533,2.185,12.252,12.883,7.352,-7.397,22.393,34.473,-50.379,-50.206,-13.501
0.650,0.842,-17.633,13.758,-16.354,-0.958,-5.222,17.760,19.496,13.222,-9.444,22.392,27.217,-45.612,-47.586,-28.266
1.175,-10.374,-20.312,15.341,-1.405,8.740,-6.702,8.664,14.934,14.225,-7.964,23.780,25.296,-34.127,-49.221,-28.767
-3.492,-1.239,-13.517,30.335,-5.832,7.218,-20.534,1.970,13.657,16.186,-14.730,24.181,17.288,-34.299,-44.104,-26.782
-11.516,0.839,-18.075,29.249,1.971,16.351,-22.446,8.360,4.640,16.343,-7.447,29.408,8.958,-36.628,-34.452,-22.513
-18.564,3.057,-10.314,22.715,9.566,21.473,-25.263,5.145,-2.581,10.045,-6.061,21.310,4.949,-16.143,-37.879,-32.033
-26.438,0.795,-15.747,21.140,12.255,17.729,-19.181,6.138,-14.032,10.140,-16.476,16.352,-3.770,-11.518,-34.147,-31.847
-22.443,-7.195,-13.277,20.328,18.224,11.317,-16.438,4.196,-18.169,13.728,-8.228,8.027,-12.675,-3.994,-30.833,-24.831
-33.401,-8.652,-4.262,9.501,25.309,8.737,-17.140,9.241,-22.876,7.140,-18.552,1.030,-12.092,11.567,-28.268,-22.992
-18.997,-2.733,-3.772,8.408,18.734,4.915,-8.266,14.763,-32.486,9.769,-16.280,-5.962,-22.888,16.074,-29.541,-32.257
-12.365,-0.399,-3.674,-8.663,21.245,2.491,-16.219,10.044,-30.435,10.192,-14.448,-22.099,-21.895,22.763,-23.842,-28.100
1.084,9.835,-0.223,-8.453,18.476,-10.169,-7.122,15.333,-29.045,-5.979,-16.633,-29.759,-32.322,18.300,-10.055,-18.466
2.144,10.177,5.675,-5.234,13.797,-16.969,-7.540,11.023,-31.164,-14.197,-6.114,-32.792,-27.574,22.626,-3.635,-12.826
-2.533,8.872,7.528,-12.756,10.047,-24.728,-8.960,-4.214,-27.557,-21.688,5.433,-22.062,-28.569,27.851,3.828,-4.322
9.455,5.657,5.183,-5.070,15.377,-21.912,-12.009,-7.897,-17.679,-26.388,12.652,-12.488,-26.130,31.570,14.101,11.112
13.283,3.107,12.285,-9.691,16.596,-23.633,-11.597,-10.972,-7.954,-34.328,18.379,-18.022,-19.791,32.469,25.124,4.878
17.290,-2.126,18.321,1.240,21.246,-17.311,-5.427,4.594,-2.703,-42.604,16.605,-4.643,-2.747,28.474,26.254,16.790
11.915,-8.617,19.098,3.917,16.883,-12.811,-11.345,1.526,-9.162,-37.161,15.926,-2.804,6.992,24.159,27.384,26.173
7.445,-19.657,15.582,4.679,20.035,-11.506,-10.600,5.485,3.147,-29.149,8.287,-4.299,19.604,18.712,33.983,31.222
9.199,-24.723,16.172,18.563,12.469,-18.603,-14.105,14.415,10.404,-25.350,8.046,3.048,30.685,15.881,27.168,32.919
11.880,-23.663,8.377,10.429,15.440,-6.499,-5.257,11.029,7.112,-21.365,5.012,-2.553,34.469,8.014,17.857,28.916
8.674,-26.088,19.515,7.368,14.060,-18.860,16.476,21.415,4.942,-15.571,-1.856,-5.886,37.184,-5.196,6.556,36.824
11.171,-24.459,24.744,14.725,10.520,-3.693,1.576,35.204,6.713,-8.736,-5.636,-2.067,46.609,-17.025,-1.414,32.028
14.281,-17.191,17.389,8.689,7.797,0.280,1.500,38.292,1.906,5.332,-10.229,-5.562,42.956,-28.212,-18.167,11.429
12.419,-15.070,15.462,10.755,-1.208,-5.249,11.560,56.161,-6.766,5.059,-11.075,-10.932,38.984,-39.049,-27.110,12.459
6.427,-8.496,14.869,14.616,-9.797,-9.714,11.505,42.404,5.316,7.497,-19.948,-10.291,31.875,-53.455,-36.791,-7.402
7.988,3.999,8.378,19.391,-8.866,-8.014,4.147,34.217,1.654,9.952,-15.627,-1.457,19.963,-48.286,-50.906,-19.150
15.805,3.823,7.946,16.871,-14.032,-1.953,-6.130,33.819,10.366,7.306,-15.544,13.748,11.237,-51.589,-53.883,-21.303
10.767,6.869,-10.202,31.575,-15.532,-5.212,-11.936,21.797,15.417,-2.373,-17.274,9.637,0.777,-54.227,-58.947,-41.401
9.568,16.386,-25.848,31.903,-18.154,0.903,-21.721,13.390,22.815,-6.482,-10.987,1.462,-0.706,-52.555,-56.754,-54.434
2.500,24.313,-26.801,32.651,-12.234,10.319,-28.020,-0.989,19.119,-8.103,-9.119,-8.831,-4.649,-47.628,-52.614,-55.119
-11.321,21.502,-34.460,39.625,-10.582,18.451,-23.729,-0.432,7.515,-26.286,-8.449,4.103,-22.442,-33.815,-35.708,-45.151
-10.803,17.266,-34.909,30.916,7.622,8.655,-24.603,-2.892,6.388,-22.597,-21.751,8.035,-22.890,-20.529,-37.984,-48.039
-21.748,13.429,-36.417,27.404,11.869,8.352,-24.632,-6.905,-4.525,-16.465,-14.997,-3.044,-17.065,-5.660,-24.728,-40.881
-24.001,2.690,-34.721,10.616,20.775,3.848,-23.641,-4.263,-17.859,-16.662,-21.084,-0.270,-21.504,8.084,-17.835,-35.884
-20.099,-2.499,-34.969,15.553,29.555,-0.758,-26.311,-11.823,-21.510,-18.722,-28.069,-5.518,-30.573,11.888,-6.303,-31.023
-16.708,-2.981,-19.087,-4.984,25.270,-5.055,-17.438,-3.106,-30.592,-9.361,-27.243,-15.375,-36.009,24.299,6.588,-25.451
-10.198,-2.195,-4.044,-8.249,25.656,-13.444,-8.708,-1.696,-40.635,-11.238,-23.290,-24.708,-36.514,23.365,13.585,-9.263
-3.529,-0.732,4.654,-19.420,27.431,-26.531,5.603,0.309,-31.322,-16.695,-18.703,-39.703,-26.949,27.440,14.517,4.019
1.653,-4.497,7.351,-11.519,24.507,-36.524,6.123,2.373,-17.929,-10.737,-16.936,-38.452,-19.425,28.119,17.615,1.517
16.455,-5.242,8.275,-22.979,24.230,-39.373,7.439,-6.117,-19.893,-12.210,-12.112,-33.714,-18.144,21.406,24.540,3.197
25.786,-4.874,17.670,-19.771,15.268,-46.790,2.652,-0.500,-4.176,-15.503,-3.753,-30.932,-8.605,23.035,28.650,13.869
23.377,-7.848,16.907,-13.990,11.090,-39.187,18.079,-3.823,-0.550,-37.669,11.320,-13.503,5.998,11.930,25.039,18.043
20.232,-7.125,16.948,-8.420,8.413,-34.553,16.659,-2.508,2.226,-35.869,16.264,-15.443,8.562,3.548,25.535,19.728
21.150,-12.492,9.845,-6.618,10.754,-31.793,0.538,-5.456,5.178,-33.297,16.628,-2.321,17.269,2.938,25.428,22.926
30.690,-19.829,2.747,0.996,8.928,-22.665,3.084,1.815,-0.468,-28.647,21.477,4.218,30.051,-4.618,29.383,16.217
15.501,-21.543,-1.919,3.270,4.120,-10.889,2.100,12.931,11.542,-22.934,7.543,4.877,41.236,-11.854,26.511,14.032
13.993,-19.993,-3.721,-2.746,7.258,0.376,1.353,27.381,10.277,-15.819,7.573,14.681,50.981,-19.021,15.068,20.006
11.432,-19.899,-1.417,14.153,10.513,4.383,7.741,34.240,20.973,-4.625,1.573,22.382,64.011,-17.299,6.241,19.506
15.341,-24.363,-2.368,10.463,5.101,0.010,-0.010,38.919,11.554,3.284,-6.905,19.074,52.303,-33.466,1.494,15.423
-1.199,-20.481,-1.501,12.531,7.161,16.273,0.590,30.998,16.450,9.435,-22.146,15.049,46.887,-40.861,-11.361,12.147
-8.297,-15.376,-1.078,14.253,6.132,5.532,8.433,41.697,6.713,8.690,-26.658,14.352,43.088,-44.290,-22.063,-0.015
-5.020,-6.341,-2.417,19.281,-3.375,-12.888,8.424,39.427,-2.625,23.285,-24.398,4.407,40.956,-54.974,-42.752,-3.633
-12.899,2.660,-1.581,14.548,-3.509,-8.910,8.855,34.829,4.771,19.390,-26.494,9.008,14.158,-56.355,-44.114,-24.775
-16.030,12.273,-4.814,16.951,-16.095,-7.771,7.643,34.186,17.496,23.741,-35.528,8.285,4.857,-48.891,-52.218,-36.295
-14.559,19.175,-7.327,20.859,-16.617,-4.697,6.897,17.415,6.459,12.913,-34.946,4.608,-13.469,-48.907,-49.760,-48.218
-9.861,15.112,-12.325,26.175,-13.414,-8.853,-0.142,5.504,-1.250,9.500,-34.007,6.098,-9.442,-35.656,-45.253,-60.316
-15.156,24.464,-20.059,26.745,-5.573,6.598,-14.364,8.323,5.507,8.247,-30.406,5.279,-14.990,-29.172,-44.319,-55.759
-20.583,29.261,-31.970,34.721,0.853,3.793,-27.119,5.932,2.851,8.222,-27.039,7.266,-26.723,-21.109,-28.812,-62.128
-17.530,20.448,-21.879,28.538,4.933,11.039,-39.048,-10.804,-0.802,-1.866,-29.571,8.305,-29.175,-5.499,-18.532,-60.605
-15.900,14.410,-26.555,26.576,24.881,-3.651,-39.856,-13.636,0.249,-18.622,-30.722,4.516,-34.608,7.966,-11.185,-55.342
-19.089,11.947,-13.139,22.009,27.996,-0.448,-37.136,-21.980,-17.758,-11.565,-22.603,-1.122,-24.659,15.100,1.237,-36.900
-19.668,-0.743,-16.172,9.734,38.098,-6.372,-31.261,-16.176,-10.256,-6.488,-19.571,-15.059,-25.442,22.085,13.235,-22.959
-14.336,-3.737,0.902,9.781,33.504,-20.099,-28.428,-17.626,-12.354,-15.731,-21.071,-13.675,-22.901,33.798,33.147,-12.013
-14.370,-11.086,1.444,-4.320,40.650,-27.241,-23.395,-14.432,-16.426,-13.398,-24.818,-24.744,-17.750,37.882,31.677,4.218
-11.398,-13.675,10.196,-8.989,39.916,-35.203,-2.879,-3.323,-23.209,-13.428,-19.801,-26.641,-6.145,34.982,33.367,8.392
-10.401,-13.360,16.101,-5.768,35.209,-34.313,4.501,5.473,-17.179,-15.006,-20.709,-21.798,-6.465,31.484,39.147,17.600
-2.897,-19.562,23.625,-13.750,31.904,-41.419,21.208,5.423,-11.486,-19.971,-13.310,-25.675,-0.506,33.909,37.147,29.005
14.288,-13.821,26.673,-9.091,22.450,-44.382,20.130,10.556,-9.943,-14.425,-5.078,-21.341,12.730,18.584,35.924,27.942
15.428,-18.322,28.734,-12.042,13.053,-33.532,10.866,11.664,7.894,-10.319,-3.875,-27.226,17.919,8.829,24.018,24.313
18.273,-10.176,22.281,-1.243,7.370,-29.654,16.375,19.387,6.375,-8.275,1.045,-19.150,22.488,-4.482,20.182,28.712
29.315,-10.636,23.848,9.396,6.939,-24.592,17.999,13.075,14.437,-12.301,1.082,-6.953,33.902,-20.447,22.200,29.124
19.295,-7.471,17.545,4.187,-3.726,-16.533,21.467,14.450,19.123,-8.535,2.198,-1.737,33.674,-24.204,14.102,27.231
15.379,-7.337,-2.803,5.218,-4.584,-7.335,19.382,18.860,31.408,-11.491,-2.222,8.969,41.965,-28.301,6.585,16.742
12.153,-13.986,0.974,18.600,-0.750,2.373,6.635,15.914,42.252,-6.178,-10.991,17.152,47.096,-29.295,-2.390,11.182
2.553,-16.174,-7.557,22.266,6.514,10.781,14.236,13.691,25.830,1.494,-14.259,15.511,54.204,-35.198,-5.367,9.472
1.136,-20.279,-5.571,24.387,-1.483,5.797,4.684,24.043,23.327,5.242,-16.055,23.269,60.839,-38.592,-7.498,-0.641
-9.977,-11.697,-11.996,32.358,4.294,8.303,5.164,22.147,13.197,12.906,-15.527,15.935,55.984,-35.721,-27.400,-11.413
-23.827,-8.847,-15.915,32.171,2.284,8.609,10.155,15.789,14.272,18.602,-26.085,12.920,45.288,-34.133,-24.773,-20.120
-20.167,0.728,-7.139,30.043,0.650,9.995,4.853,17.162,10.978,25.597,-39.272,12.753,30.200,-41.008,-46.704,-22.280
-18.064,6.948,-8.041,28.231,-2.394,-8.022,0.596,27.090,0.758,26.699,-45.156,7.759,20.484,-42.883,-43.900,-32.479
-13.612,12.916,-1.305,15.855,-4.811,2.615,-1.483,27.011,0.491,25.532,-44.022,-0.951,8.059,-36.958,-53.600,-36.271
-17.355,17.088,-12.098,11.657,-5.659,-2.027,3.380,19.810,3.504,20.350,-46.698,-9.552,-14.147,-30.461,-48.850,-35.831
-19.353,25.273,-18.758,16.078,2.052,-1.839,6.484,13.335,-0.169,21.121,-46.631,-11.211,-19.330,-26.225,-44.241,-48.810
-13.029,27.751,-16.464,7.078,3.334,0.250,1.305,8.131,-10.985,14.971,-42.400,-2.636,-34.481,-18.153,-33.958,-50.814
-11.661,23.969,-14.603,-0.214,8.967,-6.027,-8.099,5.408,-8.359,3.992,-28.520,-7.065,-39.379,-21.452,-26.835,-44.121
-17.879,18.174,-24.201,9.497,10.265,-0.319,-17.061,-6.100,6.620,-0.761,-12.865,-7.628,-36.177,-3.066,-17.035,-38.332
-12.626,18.682,-21.893,17.197,16.156,14.185,-19.021,-17.538,-0.705,-11.448,-3.576,-17.663,-39.126,16.099,-4.523,-32.037
-6.032,6.517,-3.115,15.063,15.872,-0.757,-15.059,-27.041,-5.886,-21.771,-13.563,-12.020,-35.151,31.671,7.012,-24.509
-7.817,4.782,-6.302,8.031,24.812,-5.936,-24.084,-29.189,2.364,-21.589,-9.480,-24.213,-14.969,37.807,18.405,-9.200
-6.992,4.823,-3.162,1.246,30.558,-6.237,-20.651,-20.953,8.160,-14.440,-15.517,-18.349,-17.017,44.460,31.475,2.695
-11.737,-6.293,2.747,8.936,27.353,-7.896,-9.413,-7.431,-2.801,-15.572,-10.117,-35.788,-10.141,52.055,40.600,22.084
-10.704,-16.274,2.074,12.414,27.505,-16.443,-4.377,-9.659,-7.366,-4.596,-11.172,-38.375,-3.898,50.689,37.214,26.161
1.463,-18.045,4.779,-0.180,25.818,-18.508,-3.554,-1.983,-5.191,-3.230,-4.118,-36.861,1.791,51.376,38.181,33.275
1.811,-17.060,6.266,-15.044,19.398,-17.954,9.767,3.672,-9.964,-4.849,1.213,-39.063,10.866,33.573,36.349,35.990
3.159,-20.107,17.506,-13.732,15.101,-25.379,9.038,15.933,-1.985,5.734,4.414,-20.823,15.771,19.973,29.648,36.884
5.313,-21.460,19.445,-6.537,11.152,-23.044,14.172,12.287,4.729,5.704,3.973,-20.321,19.355,5.060,25.429,34.159
11.177,-24.670,13.080,-5.732,-0.136,-21.987,27.381,20.032,11.322,8.358,9.876,-17.654,19.576,-6.420,10.600,24.266
15.899,-19.895,14.752,0.159,-6.571,-16.717,16.483,23.582,16.334,14.541,21.024,-20.389,20.722,-25.469,4.386,24.977
18.747,-19.352,6.246,13.071,-7.750,-14.986,18.753,22.346,20.986,12.708,10.410,-8.152,31.030,-32.598,-10.739,15.122
11.853,-2.398,5.484,26.968,-11.052,1.960,13.325,23.197,24.029,8.200,1.789,-1.749,28.940,-33.207,-21.290,7.345
17.937,-3.087,-5.143,28.757,-21.357,2.751,6.302,24.729,37.136,6.518,6.068,6.214,34.463,-40.343,-24.411,-2.418
11.386,0.567,-11.621,26.578,-19.509,4.374,7.647,34.730,33.984,9.129,9.298,18.526,33.976,-29.278,-28.037,-21.750
1.856,2.086,-20.253,33.332,-11.807,8.257,-6.486,20.861,24.523,13.306,2.826,15.149,36.472,-23.681,-36.093,-22.083
-7.802,-0.245,-27.558,45.210,-9.339,18.374,-3.819,27.118,14.197,19.373,-7.319,16.673,30.815,-30.387,-37.712,-24.745
-20.035,-1.424,-22.677,46.237,-5.374,19.137,-12.420,23.020,12.427,18.796,-17.728,15.036,25.318,-30.877,-39.942,-27.290
-15.688,-1.398,-18.745,33.900,5.365,13.075,-18.356,27.154,2.094,23.670,-31.589,9.377,16.754,-27.977,-36.693,-27.460
-28.887,8.498,-14.548,28.175,6.567,7.388,-7.595,23.201,2.026,20.685,-33.751,4.751,0.945,-17.386,-39.829,-38.562
-30.676,4.590,-13.232,16.189,5.001,14.459,-14.062,19.507,-14.271,20.130,-38.753,-3.360,-9.296,-7.483,-48.294,-43.259
-23.795,9.950,-7.761,12.103,8.232,5.594,-18.030,12.664,-19.079,20.103,-35.311,-14.146,-20.178,-6.592,-43.986,-52.113
-24.200,10.198,-13.203,-6.571,13.036,-2.483,-21.763,8.739,-18.171,28.606,-33.881,-17.288,-28.057,-4.265,-31.819,-43.697
-24.804,16.907,-20.466,5.214,12.673,-3.252,-16.487,9.490,-22.936,24.151,-23.267,-27.425,-43.280,0.188,-20.980,-42.879
-17.947,14.660,-18.573,2.164,17.653,-11.335,-17.868,7.235,-21.989,19.054,-10.926,-16.421,-48.370,14.668,-1.832,-42.782
-12.952,10.014,-21.500,1.203,19.724,-11.210,-22.475,1.195,-16.660,3.610,-6.763,-29.421,-53.136,18.443,1.353,-39.395
-13.839,5.383,-12.905,-1.252,21.155,-9.671,-25.147,-6.638,-12.013,-9.850,-0.320,-25.441,-45.147,23.840,14.130,-33.399
-10.030,1.113,-12.665,-13.962,20.421,-21.459,-11.266,-17.472,-7.886,-21.039,1.213,-20.417,-34.345,26.833,23.745,-25.465
2.120,1.272,-8.339,-7.589,19.495,-9.105,-7.511,-27.411,-3.971,-15.858,4.144,-13.686,-26.066,37.668,31.256,-11.636
5.045,-6.840,-10.159,-5.352,21.183,-16.005,-6.123,-17.838,-2.868,-21.474,17.430,-23.138,-7.140,38.391,44.337,-2.735
-2.165,-17.187,3.270,4.614,25.211,-22.142,0.775,-15.682,-3.505,-18.367,16.041,-19.389,6.068,50.242,43.081,18.814
2.861,-23.124,5.763,10.787,24.983,-20.586,-1.594,-16.928,-13.390,-10.429,12.168,-21.161,17.745,32.688,46.356,21.359
5.418,-23.295,10.521,16.209,23.479,-15.987,-6.121,5.835,-6.785,-14.437,9.658,-21.640,31.507,23.563,39.640,29.974
-2.544,-19.487,15.511,14.137,14.184,-16.276,9.235,14.037,4.740,-17.183,14.600,-21.371,30.681,10.088,30.077,39.188
3.088,-24.236,23.051,7.547,12.898,-20.466,17.376,19.162,-0.095,-9.129,-2.227,-25.319,30.780,6.400,27.375,39.969
-4.700,-22.551,19.992,4.888,10.452,-17.180,24.652,20.943,-1.888,4.063,5.379,-23.807,37.536,-9.515,11.795,35.382
-4.420,-19.819,16.286,9.401,-1.826,-21.327,17.281,18.268,0.935,-0.911,5.197,-24.819,42.943,-27.686,-0.537,18.232
-7.157,-9.178,2.780,6.843,-8.778,-18.198,8.251,21.757,4.228,7.783,1.316,-9.445,47.280,-33.734,-9.787,14.607
-7.721,-5.497,-7.224,13.448,-11.197,-15.456,6.512,25.081,16.909,7.431,-10.320,5.844,36.976,-47.075,-15.108,8.544
1.034,-6.501,-8.014,13.753,-17.795,-3.472,8.737,18.462,20.136,7.029,-6.921,5.570,27.514,-53.650,-22.027,-3.993
8.690,4.689,-12.469,19.005,-13.278,-4.231,6.523,20.652,26.942,3.137,-11.678,16.094,30.360,-62.026,-28.832,-8.280
-1.875,7.292,-31.731,21.366,-11.511,6.205,6.477,17.670,27.510,8.614,-17.962,10.237,15.765,-59.182,-20.103,-15.981
0.142,1.509,-39.938,33.033,-12.743,10.970,-12.429,8.777,24.288,6.912,-20.724,15.994,8.309,-46.102,-29.823,-30.306
-16.766,6.046,-31.756,34.653,-11.606,16.135,-26.747,8.614,18.880,7.294,-15.623,23.881,1.647,-42.601,-31.246,-39.682
-29.897,12.111,-36.749,40.388,2.026,22.387,-22.796,12.325,14.385,4.847,-14.697,30.375,-4.862,-34.423,-43.561,-40.397
-30.037,10.351,-33.701,35.613,2.838,23.724,-21.630,14.374,14.464,11.824,-24.514,26.047,-12.137,-27.444,-26.146,-43.377
-34.166,10.768,-28.578,38.095,13.322,20.310,-27.330,11.868,-5.109,15.677,-29.002,7.672,-22.965,-14.360,-31.213,-38.028
-34.219,6.913,-27.404,30.568,21.072,10.803,-14.921,7.123,-10.415,18.542,-26.466,-3.750,-27.257,-11.996,-31.851,-27.123
-32.106,11.526,-23.368,16.888,25.243,0.825,-11.108,10.279,-25.558,13.947,-25.609,-12.108,-28.888,-0.099,-21.251,-17.884
-24.491,6.753,-9.285,1.956,18.570,1.392,-4.844,3.667,-32.081,11.568,-27.524,-23.740,-36.955,9.718,-10.870,-18.709
-18.292,13.924,-3.002,-2.219,13.832,-1.863,-2.330,3.643,-31.447,1.783,-29.291,-30.409,-43.160,10.070,-8.840,-14.750
-15.642,14.303,0.173,-5.348,18.002,-9.198,-1.055,4.634,-27.900,2.563,-33.016,-36.598,-38.559,23.451,-4.705,-13.412
-3.384,5.803,3.200,-3.589,17.849,-18.479,-11.656,0.258,-18.888,-0.940,-27.126,-51.336,-39.222,29.139,14.092,-7.943
0.115,4.271,0.933,-8.177,13.806,-18.231,-9.148,-15.952,-17.933,-9.448,-13.108,-43.494,-36.285,23.076,12.238,8.488
7.707,5.540,-2.465,-7.131,11.151,-19.915,-9.659,-23.818,-8.509,-15.815,-6.622,-44.313,-28.552,24.022,27.497,12.082
0.656,2.129,3.550,-2.355,4.041,-31.500,6.103,-22.532,2.203,-23.562,10.577,-39.714,-19.628,23.565,33.610,19.070
5.224,0.417,-6.603,1.679,8.909,-17.759,12.656,-19.592,7.149,-23.171,4.458,-34.320,1.846,25.504,33.536,21.983
18.536,2.509,-0.382,2.503,18.497,-7.912,5.247,-20.379,12.389,-26.927,15.553,-21.612,10.633,20.214,43.230,34.080
9.819,-12.490,4.458,18.021,18.672,-14.291,0.859,-7.659,15.745,-19.108,13.703,-8.097,10.865,14.483,43.551,22.002
10.286,-26.517,15.493,9.698,16.321,-11.313,5.575,8.398,11.488,-16.823,8.315,-9.835,27.403,13.023,38.148,26.180
6.291,-23.525,4.479,10.947,24.476,-14.816,13.145,26.549,8.468,-12.736,8.319,-11.049,47.454,5.167,28.870,36.287
-7.855,-24.904,7.398,5.459,18.228,-8.138,9.695,28.575,14.624,-1.998,0.676,-15.681,59.252,1.210,29.777,36.652
-5.844,-27.256,13.115,6.103,5.781,-7.814,10.597,29.283,13.037,5.158,-8.484,-12.558,52.652,-12.545,6.638,20.691
-5.356,-21.871,13.661,8.498,-5.091,-12.549,13.628,30.021,9.357,16.186,-19.432,-11.427,52.271,-26.345,-6.253,11.011
0.461,-9.995,6.858,12.581,-7.172,-12.750,12.461,30.735,8.842,17.646,-24.971,-8.136,38.894,-39.718,-18.883,10.785
-1.180,0.149,13.285,9.106,-8.608,-7.291,10.033,33.346,14.426,19.523,-31.301,-6.954,33.416,-53.782,-31.781,-4.325
2.431,5.784,-2.632,18.153,-12.180,-12.116,0.218,31.590,11.796,23.640,-18.641,-1.888,28.095,-48.789,-46.591,-20.830
-3.420,10.231,-8.642,21.446,-8.832,0.249,0.262,19.097,6.419,31.121,-20.159,1.110,17.775,-44.589,-56.007,-32.783
-3.145,22.771,-14.824,21.711,-14.031,11.231,-8.878,13.676,7.298,28.066,-21.550,3.287,10.928,-52.697,-55.544,-39.858
-0.241,23.505,-22.897,32.420,-16.145,6.635,-16.677,14.675,10.499,27.522,-22.613,2.200,4.206,-46.117,-42.916,-42.381
-12.043,21.091,-27.501,29.858,-11.169,15.339,-23.812,-0.149,6.536,17.596,-19.764,5.038,-6.733,-29.256,-44.088,-42.178
-9.235,24.778,-27.304,31.794,-4.005,23.354,-28.180,-8.415,9.793,12.200,-21.649,6.893,-9.998,-26.399,-31.555,-46.903
-13.973,29.066,-19.838,30.035,8.590,17.941,-19.518,-11.537,-3.837,12.173,-17.494,-1.347,-13.271,-17.706,-21.397,-53.153
-22.060,20.271,-20.201,24.893,21.317,13.678,-23.018,-15.002,1.650,9.049,-19.630,-3.837,-14.809,0.405,-14.150,-41.415
-28.725,17.249,-20.160,16.534,20.146,9.277,-29.210,-4.915,-6.527,0.550,-23.081,-15.018,-18.669,15.591,-1.773,-34.006
-24.997,19.094,-15.911,19.346,29.773,3.464,-12.770,-4.100,-11.622,-4.842,-14.842,-20.438,-23.860,18.992,9.984,-20.372
-19.766,12.938,-9.030,9.740,35.954,1.341,-18.142,-9.564,-22.703,-2.131,-27.475,-27.333,-22.080,22.523,8.316,-18.519
-16.057,5.670,-7.634,-2.073,44.995,-8.712,-15.283,-9.892,-23.794,3.832,-27.458,-31.495,-21.562,31.262,13.401,-11.745
-10.144,2.520,6.369,-0.733,33.455,-13.276,-12.124,0.829,-33.547,3.986,-12.762,-37.353,-14.744,28.986,19.964,0.629
-3.045,-3.509,18.456,-6.288,26.068,-19.080,-4.361,-12.823,-27.110,-10.352,-10.327,-36.347,-20.929,30.179,24.140,8.590
12.474,1.830,19.214,-8.385,12.428,-25.476,4.933,-7.269,-24.372,-12.051,-7.643,-50.515,-11.878,33.704,23.052,16.315
15.751,-2.152,12.832,-2.885,8.817,-17.861,8.824,-8.952,-18.773,-15.717,3.197,-45.212,3.179,21.370,29.690,12.028
27.353,0.361,17.476,-5.495,8.350,-28.945,7.410,3.226,-15.826,-19.497,7.065,-28.077,10.962,22.598,25.509,23.559
27.295,0.734,10.623,-7.072,10.003,-18.078,4.776,1.655,-5.457,-25.511,14.818,-24.535,18.958,16.019,35.183,31.845
23.567,-1.658,3.806,9.404,11.380,-28.945,8.193,8.960,2.490,-22.445,13.783,-23.173,16.558,10.062,41.627,27.763
17.518,-2.012,8.342,11.483,0.610,-24.931,20.016,7.774,1.974,-22.382,19.924,-11.820,34.078,8.860,33.086,27.840
14.063,-5.688,10.166,12.576,3.210,-13.694,19.012,-2.054,6.725,-17.973,16.702,-3.076,41.931,0.110,26.161,30.244
13.352,-8.916,12.340,14.752,0.969,-8.476,8.105,-2.757,10.060,-7.134,8.842,-0.459,53.296,-7.056,17.278,28.950
11.735,-5.663,9.343,8.564,1.470,-5.199,8.169,15.883,12.459,-2.668,2.527,-2.559,52.813,-16.951,7.726,27.990
2.650,-7.197,12.946,10.909,1.531,-3.709,11.000,30.321,10.614,4.503,-10.709,-10.930,55.597,-20.830,-12.237,23.588
4.163,-7.213,13.552,18.328,3.510,1.989,12.703,47.781,5.522,11.856,-14.668,-11.240,50.006,-25.755,-18.814,16.263
-13.863,-2.488,10.726,8.857,2.614,-2.925,16.802,40.813,7.935,20.495,-19.901,-6.041,36.968,-31.199,-34.850,8.095
-16.428,7.013,1.741,6.436,5.318,-11.536,12.790,39.916,6.570,31.785,-23.254,7.504,35.035,-44.304,-46.212,-0.099
-16.358,10.569,-7.568,8.703,3.724,-5.917,5.293,47.861,3.921,29.713,-24.074,0.010,19.002,-45.870,-49.749,-11.969
-19.420,22.849,-21.809,12.664,-3.556,8.573,6.126,40.898,10.205,37.785,-24.102,12.476,8.983,-37.138,-56.447,-22.792
-11.058,26.423,-19.805,20.812,-8.075,9.676,-10.145,31.028,11.455,27.695,-25.782,-3.611,-11.922,-40.637,-62.194,-41.340
-11.871,30.124,-36.389,13.903,-7.259,4.942,-13.816,33.326,15.581,26.505,-23.053,3.484,-27.684,-27.615,-62.903,-56.222
-14.150,38.873,-32.634,21.343,-6.577,13.398,-16.348,22.194,9.222,19.054,-21.650,5.375,-26.804,-27.716,-54.861,-52.216
-11.918,38.336,-34.937,26.372,-2.458,23.776,-11.320,17.793,6.965,20.387,-18.674,11.940,-28.785,-18.364,-44.214,-57.189
-15.044,35.441,-41.918,29.564,10.872,16.569,-18.218,-5.424,10.964,11.328,-22.172,16.625,-34.065,-1.200,-28.350,-48.900
-22.143,26.592,-28.755,16.228,17.716,9.921,-21.672,-1.502,1.532,-7.207,-11.907,3.264,-35.265,11.449,-18.445,-36.375
-16.133,17.260,-21.408,8.103,17.097,1.425,-34.269,-5.061,-5.816,-1.440,-5.843,-2.304,-36.130,21.397,-7.049,-20.491
-21.027,12.581,-23.259,13.410,28.246,-0.219,-27.143,-2.435,-7.085,4.959,-10.327,-10.544,-29.955,34.999,3.349,-9.788
-23.137,0.368,-13.256,7.563,29.892,-8.216,-21.368,-5.351,-17.870,1.864,-13.868,-25.632,-11.731,47.940,0.097,2.874
-21.480,-3.274,-7.914,1.480,34.982,-16.843,-19.411,1.584,-18.920,0.590,-11.642,-18.125,-11.152,36.721,12.309,5.374
-21.988,-10.183,-6.450,4.984,33.480,-19.722,-15.148,-0.641,-16.298,2.585,-3.336,-27.485,-1.245,50.704,11.631,13.097
-16.859,-7.357,12.307,-11.020,30.288,-24.896,0.002,7.080,-16.037,4.624,-0.378,-22.979,3.194,47.723,17.505,27.367
-3.408,-7.814,14.984,-16.778,24.621,-35.369,-1.562,19.114,-12.451,6.549,1.898,-19.614,11.488,38.619,15.221,31.854
1.370,-5.865,15.108,-21.794,15.970,-25.206,9.290,15.508,-6.702,8.042,6.206,-20.980,13.557,24.930,8.115,32.995
13.214,-6.143,14.513,-11.530,9.083,-33.922,10.671,14.618,1.419,7.742,12.051,-29.841,11.961,19.531,16.334,28.517
11.706,-3.820,4.554,-3.565,-0.741,-39.112,4.640,17.281,5.800,0.918,20.128,-12.400,14.635,6.544,10.199,24.666
16.743,-8.525,10.092,7.595,-11.161,-24.833,7.366,7.132,17.956,5.496,21.111,-8.138,21.281,-4.109,4.791,31.744
21.153,-12.595,6.857,8.396,-11.504,-10.805,7.730,3.138,24.165,-2.801,18.344,-12.748,30.566,-8.305,8.424,20.618
5.084,-10.498,2.721,17.217,-12.483,-2.485,5.198,5.111,26.100,-2.017,8.535,1.666,42.021,-17.129,2.277,16.383
0.576,-11.652,-5.026,14.495,-12.022,-4.012,6.777,15.952,22.238,5.933,8.001,2.833,53.943,-22.094,-7.426,10.560
-4.920,-9.534,-14.999,24.148,-8.210,-0.878,16.613,15.739,24.043,2.764,6.906,17.034,50.979,-21.352,-7.617,8.089
-3.513,-4.410,-14.698,20.822,-9.310,10.515,3.135,18.011,26.377,15.819,5.755,25.286,45.704,-17.972,-21.867,-0.807
-10.754,-7.352,-14.907,26.900,-4.355,19.276,-1.096,27.019,21.944,25.262,-12.503,21.422,44.377,-20.272,-29.596,-17.888
-16.679,-5.397,-14.573,20.641,-8.014,19.694,-4.697,22.279,15.717,23.042,-24.522,14.232,42.103,-30.063,-41.816,-11.477
-19.079,-11.964,-2.275,14.958,-6.048,11.109,3.291,18.646,10.517,29.053,-30.520,13.602,40.525,-27.550,-52.653,-19.214
-17.092,9.012,-4.884,12.459,-10.411,1.211,13.902,26.683,8.656,36.388,-33.172,7.634,23.966,-24.884,-63.763,-26.986
-18.032,11.973,-2.704,7.481,-6.324,11.916,10.900,22.574,8.538,33.894,-35.804,2.403,9.253,-26.011,-65.939,-36.702
-19.362,14.963,-4.065,26.030,-11.636,5.246,2.756,15.141,4.654,28.738,-32.637,-2.090,-9.507,-27.893,-58.878,-49.052
-22.993,19.841,-15.428,12.378,-6.314,7.997,-3.914,11.543,-3.331,27.176,-26.445,-16.450,-11.141,-22.172,-45.217,-49.491
-19.175,32.379,-10.695,4.602,-4.414,6.803,-14.921,4.206,2.164,14.798,-25.636,-4.455,-24.158,-4.797,-44.794,-40.359
-23.648,39.757,-7.779,-1.198,1.357,2.812,-15.634,-10.644,5.893,12.749,-23.598,-15.071,-31.443,3.633,-38.123,-46.539
-23.912,35.857,-16.049,7.757,2.290,6.132,-14.265,-4.263,7.158,9.794,-13.703,-10.978,-30.446,9.471,-23.859,-46.467
-15.570,29.515,-19.834,13.700,9.429,6.403,-13.490,-14.057,11.489,4.650,-9.269,-9.194,-28.725,24.662,-2.845,-38.397
-17.431,14.577,-24.834,9.835,19.704,-4.412,-11.980,-13.797,2.463,2.037,2.831,-3.143,-31.217,30.912,14.443,-30.921
-17.730,12.202,-10.852,3.376,27.583,-9.283,-14.394,-16.990,0.061,-0.084,6.622,-9.294,-22.173,35.561,20.970,-7.589
-12.016,7.131,0.153,-1.013,26.623,-19.588,-8.183,-13.636,-5.668,-4.719,4.846,-7.229,-6.596,44.555,26.314,-5.507
-17.886,-1.152,-0.652,-7.685,32.206,-7.305,-5.553,-10.478,-8.696,-3.573,-0.223,-11.934,-0.168,48.400,32.276,5.890
-17.748,-12.448,-1.804,-9.818,31.863,-16.172,2.398,-5.562,-4.155,-4.464,2.058,-11.534,18.058,45.261,33.517,17.878
-9.719,-14.314,5.190,-16.590,30.277,-11.088,13.561,2.338,-17.919,4.102,8.867,-17.258,25.043,42.106,27.372,29.262
0.776,-16.497,13.611,-18.740,19.592,-17.598,20.455,13.634,-12.547,-2.089,12.830,-29.898,25.284,35.308,23.893,32.235
7.895,-18.333,13.181,-16.892,18.567,-17.462,23.799,13.216,-1.718,2.639,18.254,-41.045,32.772,28.376,17.284,40.786
17.029,-17.061,24.326,-20.648,5.776,-16.566,24.913,23.133,-0.040,10.723,21.675,-28.258,39.415,19.515,11.183,34.755
19.723,-10.142,17.487,-6.476,2.332,-16.781,29.772,23.349,1.418,4.465,19.256,-23.198,38.157,9.514,16.261,33.326
20.818,-3.037,12.578,0.351,-8.053,-17.709,23.688,31.110,12.772,2.452,17.466,-9.536,40.569,-9.466,-1.780,22.112
18.056,-0.612,9.864,11.014,-18.867,-8.733,24.793,21.878,15.029,2.046,13.512,7.009,38.895,-16.833,-16.691,12.521
11.091,-0.739,-0.911,18.091,-12.983,2.098,13.067,29.400,21.982,3.609,24.362,11.290,32.733,-20.030,-20.056,5.590
2.575,-2.532,-6.120,24.737,-15.532,15.812,5.568,26.632,25.011,9.720,19.192,22.240,35.579,-24.735,-21.852,-8.931
1.751,-0.849,-2.531,31.077,-18.302,20.496,-8.256,20.440,32.927,18.080,17.130,29.749,32.746,-25.392,-20.757,-25.079
-3.699,7.844,-10.206,37.478,-12.845,24.404,2.178,24.649,29.369,9.104,4.725,29.661,34.176,-22.841,-24.444,-29.212
-16.833,6.786,-12.667,22.889,-9.812,25.390,-6.912,23.501,19.305,17.012,-5.808,30.737,34.419,-17.178,-23.055,-28.287
-20.137,8.093,-16.667,14.558,-3.133,27.487,-15.873,21.802,19.929,20.044,-9.745,30.449,29.152,-17.741,-26.783,-39.305
-31.808,3.956,-8.824,12.135,2.714,29.059,-13.391,20.989,10.413,27.196,-18.122,26.088,22.730,-12.466,-34.543,-32.477
-37.478,0.111,-9.375,10.855,5.562,26.446,-12.896,20.133,6.363,40.459,-23.326,13.971,6.225,-4.977,-41.081,-30.746
-44.700,16.032,-14.601,14.598,6.862,12.306,-12.424,27.414,-1.465,33.925,-24.949,-1.981,3.188,-3.181,-32.094,-41.913
-33.529,15.816,-13.378,13.241,9.029,-2.416,-3.945,21.075,-12.335,28.586,-16.819,5.402,-12.087,-2.627,-38.429,-40.524
-29.401,17.230,-6.897,3.334,10.583,0.336,-2.347,13.585,-16.124,26.367,-20.502,-6.257,-24.363,-0.789,-39.452,-43.445
-31.313,15.447,-0.568,3.358,3.761,-8.159,-9.235,5.686,-8.795,18.096,-22.222,-9.793,-34.982,11.142,-43.619,-42.533
-32.884,21.060,-6.707,-4.014,7.298,-9.151,-22.336,-7.986,-7.877,7.181,-15.561,-12.875,-44.727,7.827,-24.903,-36.109
-21.059,20.890,-16.613,-4.395,4.022,-9.062,-14.111,-11.075,-1.228,-5.066,-4.988,-6.376,-43.870,26.179,-15.384,-26.883
-11.466,18.774,-9.982,-4.752,1.290,-6.875,-13.767,-13.435,-1.443,-9.313,-3.573,-22.270,-42.298,32.858,-11.099,-21.511
-4.539,13.430,-18.101,2.109,5.878,-12.384,-12.468,-19.192,-10.084,-20.145,-0.945,-17.314,-35.192,35.849,11.789,-11.629
0.103,6.028,1.141,9.450,7.620,-14.064,-16.224,-20.612,-10.022,-22.448,13.508,-20.310,-17.598,45.373,24.754,0.357
-3.881,2.313,3.522,-3.542,14.725,-18.347,-11.265,-18.151,-6.195,-28.064,17.441,-17.705,-3.618,46.223,28.272,10.976
-3.964,1.620,7.578,-11.959,16.706,-23.193,-14.088,-14.701,-2.563,-23.998,25.218,-17.042,2.422,41.441,32.626,13.542
-4.252,-15.981,12.963,-14.196,17.054,-16.823,-6.805,-11.012,-0.095,-13.709,13.456,-16.564,10.206,35.178,32.136,25.799
2.643,-22.555,19.512,-17.350,16.671,-15.541,2.146,0.673,2.123,-10.789,8.687,-10.335,22.747,39.854,34.792,34.535
0.800,-24.996,17.355,-11.514,11.046,-14.732,19.427,9.982,11.470,-8.731,9.574,-2.537,39.971,29.115,26.496,42.486
-3.265,-28.965,21.367,-8.335,2.516,-13.110,20.550,11.004,8.525,-5.900,15.077,-1.777,47.132,17.907,20.767,51.470
3.094,-22.394,22.686,-13.541,1.620,-23.690,23.510,11.487,14.271,3.629,16.951,-3.298,38.434,12.949,11.124,45.727
8.029,-19.666,26.132,1.535,-8.670,-16.089,27.860,19.556,20.474,8.611,18.651,4.876,44.707,-4.121,0.802,37.938
16.205,-12.655,25.363,0.250,-19.471,-12.395,26.259,23.289,28.655,13.168,9.066,8.533,39.136,-21.539,-11.463,36.002
8.563,-10.405,8.512,-6.046,-12.148,-9.827,22.127,29.330,34.174,19.404,8.125,9.332,35.030,-30.513,-23.063,17.802
5.592,-3.996,-4.820,4.421,-19.620,4.879,11.113,23.027,35.310,21.245,-3.219,15.328,38.822,-37.570,-31.442,-0.236
4.010,-4.535,-2.285,9.805,-23.993,5.142,8.842,18.853,31.192,14.263,3.712,17.780,32.057,-42.290,-44.597,-7.677
-3.404,0.764,-18.958,21.934,-25.864,12.324,-5.389,8.902,32.232,13.932,0.122,17.997,27.389,-44.174,-53.470,-25.004
-1.347,9.885,-11.585,30.640,-25.183,29.547,-10.716,-7.499,32.198,12.678,3.519,20.925,18.086,-40.315,-53.266,-22.820
-11.473,6.229,-12.512,26.428,-20.484,22.130,-11.745,3.741,34.901,14.967,-1.615,27.666,11.328,-35.220,-46.416,-33.152
-18.411,4.719,-12.787,18.049,-4.039,10.725,-17.488,10.018,36.271,16.260,-4.101,25.604,15.816,-20.640,-45.542,-31.687
-32.080,6.603,-22.810,32.291,0.183,16.323,-21.477,-0.403,20.908,21.516,-7.172,14.253,1.402,-17.386,-26.446,-40.758
-27.071,0.853,-30.507,18.322,9.601,20.251,-20.895,0.694,10.468,23.946,-12.340,4.967,-16.983,-6.794,-30.001,-40.016
-33.125,0.291,-22.096,6.045,19.710,17.391,-16.246,0.251,8.092,21.184,-12.187,3.201,-14.493,1.929,-25.446,-35.650
-39.270,9.145,-14.777,-1.012,11.057,2.441,-2.882,-11.444,3.707,25.165,-9.713,-1.451,-8.855,10.725,-30.645,-27.462
-36.820,8.013,-8.246,-6.439,20.847,-2.869,1.279,-19.391,-4.283,22.217,-7.394,-6.031,-25.231,14.003,-18.480,-14.437
-27.968,12.559,-5.688,-25.013,19.571,-14.320,-1.492,-12.122,-5.575,19.890,-1.455,-13.890,-36.189,23.513,-12.575,-17.099
-22.930,7.471,-10.832,-20.060,17.769,-16.796,-1.105,-10.344,-6.430,8.052,0.750,-6.606,-33.261,25.494,-5.453,-16.270
-6.902,5.183,0.110,-29.111,14.779,-14.431,-13.037,-11.762,-7.139,-3.959,10.334,-5.249,-33.070,32.091,-2.024,-6.277
4.195,0.878,2.050,-19.206,6.569,-22.612,-12.922,-20.917,-15.823,-7.034,13.490,-13.436,-33.100,42.557,13.753,5.131
-0.753,-1.359,8.617,-16.920,10.526,-6.309,-1.569,-23.052,0.235,-22.822,25.928,-16.847,-23.471,38.136,24.969,16.201
4.496,-3.880,0.848,-21.976,9.210,-8.268,-5.718,-32.970,6.928,-21.363,38.415,-12.897,-12.470,37.985,28.019,12.816
8.004,-3.289,-4.226,-16.029,0.718,-3.550,4.886,-31.241,13.717,-26.340,34.129,-12.008,-10.059,39.597,29.771,17.818
5.292,-8.784,2.808,-9.994,5.592,0.819,3.079,-23.921,20.299,-25.579,45.317,-7.542,15.648,35.901,41.424,35.641
10.416,-14.560,-2.054,-3.280,9.321,-6.603,6.353,-22.497,26.641,-24.258,36.534,-13.051,33.500,29.925,31.233,46.508
9.311,-27.495,4.125,3.486,18.392,1.464,15.153,-6.870,19.595,-17.771,38.062,-2.369,49.799,24.806,30.630,44.900
1.191,-26.114,5.115,-6.492,13.350,1.529,16.833,4.119,21.753,-12.037,23.713,-5.293,53.619,10.998,22.893,49.081
4.754,-18.154,1.400,-4.105,11.182,6.539,15.326,14.213,25.424,0.978,15.781,-3.561,63.961,2.756,20.349,45.112
-0.076,-13.854,8.648,-2.920,2.920,-4.246,17.638,20.006,26.154,3.364,12.026,-5.908,64.310,-7.528,5.390,44.663
0.030,-13.845,13.002,-6.502,-2.689,-0.038,14.320,19.296,26.818,9.134,1.537,3.007,53.810,-20.596,-11.105,31.431
-2.392,-10.558,2.127,0.311,-14.169,4.642,23.983,30.745,23.357,18.457,-0.155,8.762,48.311,-30.567,-21.249,20.216
-10.762,-3.943,-5.063,-6.684,-16.741,-1.484,15.860,29.625,17.331,21.566,-6.064,14.291,47.249,-46.175,-42.779,1.940
-4.176,7.498,-5.473,-3.188,-24.247,0.459,3.375,28.370,21.840,24.892,-1.308,11.073,26.811,-52.432,-50.492,-13.724
3.560,19.779,-21.592,4.487,-22.071,5.878,-5.448,20.529,24.215,21.384,6.370,19.445,23.847,-50.332,-57.235,-30.656
-3.229,18.657,-23.000,23.408,-34.145,9.890,-7.188,15.977,24.024,16.740,-2.140,26.147,21.795,-45.671,-60.798,-33.860
-11.226,30.665,-29.673,33.626,-26.125,20.470,-5.159,-4.183,18.972,24.257,0.948,29.225,9.763,-42.783,-55.526,-36.903
-14.480,24.209,-30.192,30.143,-15.275,17.665,-14.994,-11.790,27.986,9.963,-1.673,30.887,5.458,-24.956,-51.782,-41.419
-17.536,27.689,-38.163,22.502,-12.579,15.707,-22.437,-11.713,15.558,13.372,-4.926,23.707,-9.058,-22.211,-39.847,-41.424
-29.960,16.675,-28.453,17.486,3.048,21.969,-35.251,-20.770,5.775,10.751,-4.238,21.812,-10.986,-13.074,-30.695,-38.975
-33.005,17.513,-26.320,6.801,4.601,24.234,-40.710,-19.726,-4.796,2.784,-9.972,20.596,-7.168,2.114,-26.188,-39.154
-32.049,20.626,-29.882,9.979,20.419,21.072,-36.649,-17.820,-6.819,5.529,-11.863,19.619,-1.735,14.395,-15.368,-38.461
-29.621,14.942,-19.664,1.790,27.237,12.258,-26.539,-19.741,-11.461,9.121,-8.981,-1.386,-13.048,20.359,-8.304,-11.926
-32.141,6.105,-20.807,-0.040,24.154,-6.958,-20.398,-22.245,-25.835,7.843,-11.075,-6.882,-12.259,31.865,-0.168,-7.886
-32.447,4.479,2.042,-8.417,26.480,-13.406,-15.153,-13.964,-24.839,-1.960,-14.872,-12.610,-13.389,36.284,3.935,1.526
-28.863,0.546,3.432,-14.014,29.468,-20.996,-9.742,-10.084,-13.924,-5.708,-2.543,-14.444,-16.160,37.562,2.140,-0.425
-20.188,-1.234,5.949,-25.860,24.975,-8.618,-2.067,-22.241,-15.919,-16.236,9.225,-16.516,-8.708,39.010,6.108,13.201
-11.005,-2.511,12.444,-24.603,18.911,-13.040,2.791,-13.119,-13.671,-17.550,12.509,-18.979,-9.735,36.076,11.050,20.793
-3.410,2.567,11.696,-16.354,0.974,-25.734,0.863,-1.381,-7.237,-14.824,9.385,-9.669,2.782,34.598,18.761,23.028
4.177,-1.395,11.240,-26.058,1.946,-22.633,6.352,-6.548,-3.614,-12.942,17.772,-10.056,7.539,30.010,19.008,30.116
14.341,-7.330,12.875,-23.976,3.572,-14.189,0.602,-5.584,1.795,-19.257,24.876,-2.449,19.234,22.865,26.776,27.223
24.675,-13.392,13.973,-4.804,-1.557,-2.993,-3.757,-6.866,16.715,-18.566,30.165,4.918,30.833,18.003,21.754,37.746
17.467,-8.112,12.037,-3.367,2.304,3.435,-4.350,-2.578,17.673,-9.296,33.783,-2.933,43.814,14.574,27.801,29.763
19.962,-17.121,11.975,-0.300,1.703,1.488,-2.027,0.607,27.819,-9.826,29.718,3.084,57.028,10.734,29.655,29.702
15.833,-13.275,10.230,0.026,0.741,7.940,-2.166,8.969,18.079,1.931,24.732,13.069,61.538,3.793,24.407,20.429
13.125,-18.758,-0.824,3.191,-0.581,12.999,-6.868,15.870,27.182,4.641,21.305,14.485,60.979,-12.487,16.914,21.550
7.839,-18.111,0.937,-3.369,-2.043,15.442,-2.017,21.113,14.197,6.161,12.290,16.607,66.159,-17.013,3.172,20.602
1.891,-18.216,-5.278,-6.339,-6.434,-0.500,1.891,29.835,14.533,18.331,2.915,17.662,54.395,-19.901,-9.670,15.585
10.864,-10.835,0.505,9.781,-3.796,6.779,1.105,26.244,13.881,17.818,-4.457,15.185,48.920,-27.809,-19.901,4.387
11.105,-1.553,-2.588,0.766,-9.809,12.955,8.227,23.260,11.431,26.489,-14.316,13.072,46.821,-29.060,-26.498,2.650
-4.448,-0.076,-7.642,17.077,-15.356,14.968,8.075,24.581,18.071,33.461,-16.275,8.902,41.787,-37.008,-52.974,-11.020
-21.055,6.468,-12.117,5.872,-15.671,1.763,11.775,27.036,15.566,26.688,-20.905,9.960,30.220,-36.385,-55.350,-31.771
-11.106,20.458,-21.516,3.991,-21.227,-0.332,-1.222,19.243,15.957,19.758,-6.837,12.552,2.464,-39.949,-51.503,-34.698
-16.041,21.410,-17.676,-4.839,-19.863,11.290,-19.357,5.296,4.881,18.014,-3.183,14.347,-14.885,-30.847,-53.555,-43.236
-11.204,24.100,-33.798,1.943,-12.890,4.917,-21.547,2.102,14.202,6.900,1.877,17.318,-16.127,-20.458,-39.285,-49.870
-5.059,34.656,-35.646,5.175,-5.844,12.968,-31.681,-9.922,11.353,15.172,-3.315,17.731,-9.349,-9.017,-33.031,-50.186
-11.404,28.337,-38.161,6.515,-7.610,20.826,-37.987,-11.463,16.784,2.159,-3.449,13.717,-11.471,-2.275,-19.027,-37.708
-19.210,15.402,-39.497,3.202,3.449,18.072,-19.368,-21.064,6.808,-3.020,-5.710,13.223,-20.397,19.547,-6.575,-35.058
-22.279,13.377,-40.836,3.150,7.010,4.449,-32.336,-29.284,5.702,-0.938,-1.003,10.916,-18.131,35.410,8.117,-19.159
-18.138,5.098,-33.124,-9.637,11.858,0.473,-21.396,-30.642,1.763,-10.294,-8.476,4.838,-10.352,38.086,22.610,-10.289
-21.806,-6.948,-17.721,-15.627,18.926,10.246,-19.794,-17.580,-3.004,-15.573,4.933,1.527,-10.039,45.465,22.245,-5.930
-18.694,-5.973,0.681,-15.351,17.063,-1.174,-18.551,0.149,-14.420,-13.889,-0.580,-10.899,-3.572,46.940,18.198,5.118
-18.224,-12.817,2.590,-20.237,20.051,-3.141,-10.451,-0.138,-20.448,-8.214,-4.093,-21.743,3.373,45.061,25.285,17.019
-8.671,-18.302,13.434,-15.846,17.847,-14.420,-13.716,4.854,-13.858,-14.698,-2.447,-24.916,13.044,45.918,31.775,35.733
-1.673,-13.360,16.501,-10.332,12.775,-25.082,-4.201,-0.792,-11.749,-10.814,6.047,-22.551,14.345,39.513,33.828,35.991
5.444,-8.986,11.754,-20.085,6.371,-21.025,4.513,-3.338,0.418,-19.067,11.986,-22.661,27.517,22.798,24.944,37.476
18.231,-2.840,15.374,-22.043,-0.106,-25.260,5.042,5.132,14.485,-16.803,10.288,-14.917,38.215,8.619,10.410,35.064
18.245,-15.805,9.369,-14.597,-10.475,-21.586,2.538,3.188,14.555,-17.759,12.301,-17.286,42.211,1.715,21.277,29.424
17.356,-9.513,6.352,-5.708,-16.454,-10.497,-3.324,14.860,19.388,-11.316,16.784,-3.671,47.284,-9.771,18.939,20.480
16.054,-12.651,5.932,-14.798,-18.534,-4.042,-8.613,-0.138,28.401,-12.046,23.334,3.389,53.128,-9.823,7.939,16.781
9.517,-6.182,4.846,-2.562,-18.968,2.845,-11.818,9.067,27.631,-2.763,21.435,25.180,56.436,-18.370,0.821,16.210
6.650,-7.172,-3.214,7.275,-19.582,-6.266,-6.204,14.801,17.002,-8.021,13.080,39.105,55.265,-19.564,1.317,3.061
-3.755,-5.534,-15.397,14.533,-21.221,12.465,-13.184,18.267,21.906,-1.979,15.289,38.843,55.334,-22.727,-4.668,-12.369
-10.566,-4.885,-15.358,16.268,-15.703,15.172,-22.879,10.360,26.585,2.151,7.472,29.231,60.519,-25.423,-14.672,-7.450
-19.274,-3.494,-20.836,15.281,-14.919,17.083,-24.554,21.935,32.637,7.559,-4.402,25.451,58.185,-30.711,-16.888,-10.240
-21.571,-1.113,-23.444,23.180,-15.473,14.374,-12.053,13.603,16.949,13.338,-8.137,30.763,38.477,-33.374,-22.819,-15.173
-21.681,0.538,-26.919,18.792,-4.100,21.581,-14.926,18.366,14.707,16.754,-21.858,33.277,32.521,-27.634,-39.652,-16.373
-26.833,3.828,-27.348,12.071,-1.970,22.427,-18.601,22.848,3.892,17.242,-16.748,28.840,8.286,-24.158,-47.891,-15.027
-36.764,13.400,-29.642,22.380,-10.820,12.252,-18.554,23.900,-1.818,21.793,-19.956,24.915,1.407,-27.727,-51.040,-31.119
-29.410,22.977,-24.418,11.316,-13.880,7.724,-22.641,19.509,-5.694,24.006,-22.130,20.058,-13.686,-24.834,-47.210,-33.815
-31.504,22.359,-22.320,12.387,-17.450,14.452,-20.685,12.790,-1.850,15.847,-23.717,12.502,-13.318,-28.297,-48.329,-42.441
-22.706,31.702,-30.245,8.270,-21.100,11.085,-24.443,4.685,-11.636,6.850,-18.144,13.406,-28.263,-11.386,-36.436,-48.800
-24.008,25.656,-29.949,7.756,-11.603,11.025,-33.708,-6.937,-8.721,7.169,-11.212,15.719,-22.078,0.558,-29.319,-47.461
-16.120,28.418,-36.065,-2.175,-5.157,7.891,-32.126,-10.093,-0.339,-2.501,-8.482,8.492,-31.130,7.512,-20.580,-50.718
-16.574,26.041,-26.437,4.348,4.824,6.951,-41.550,-23.376,5.922,-18.441,-0.505,7.627,-26.594,14.272,-2.183,-45.029
-27.278,18.082,-28.108,10.296,12.360,9.618,-37.590,-34.288,-3.549,-22.812,18.039,8.839,-31.065,27.309,14.588,-25.112
-24.584,1.892,-19.294,1.906,14.319,11.055,-38.458,-25.503,-5.071,-18.097,6.341,-5.096,-13.529,36.339,22.784,-6.113
-14.607,-3.103,-12.405,-4.800,23.849,-0.428,-25.111,-24.120,-13.544,-23.489,19.982,-7.044,-7.351,44.855,24.425,0.036
-17.908,-15.721,-8.592,-8.945,21.644,-8.240,-19.707,-26.311,-6.190,-25.661,24.263,-9.144,-0.006,54.581,33.913,16.662
-15.689,-16.119,-10.822,-16.946,29.262,-4.211,-7.740,-11.650,-12.408,-28.018,12.200,-11.172,13.011,43.597,38.376,36.466
-8.212,-15.981,-0.479,-22.521,21.010,-2.653,-13.155,1.738,-3.848,-21.445,11.605,-18.915,22.239,40.223,44.344,24.004
0.159,-18.206,-3.423,-14.265,13.120,-11.666,-6.894,2.434,-1.686,-7.829,3.076,-17.673,27.994,26.520,34.137,32.346
4.591,-21.515,10.524,-21.033,3.478,-18.334,9.407,5.117,5.114,-10.112,2.631,-10.925,30.560,22.595,17.485,33.639
15.693,-14.539,6.559,-18.285,-5.491,-29.865,12.989,10.542,3.447,-4.475,14.026,-5.690,37.426,11.482,9.834,33.743
9.847,-10.302,1.628,-26.765,-13.288,-24.318,12.383,6.207,9.828,-5.303,10.281,2.181,42.955,-10.235,8.557,26.545
12.097,-2.718,-2.866,-19.604,-17.396,-22.414,11.397,-3.049,24.672,-3.169,5.062,3.352,33.713,-20.251,-2.824,24.940
13.242,-0.690,-9.541,-16.529,-18.622,-3.451,11.170,-10.834,13.708,-6.635,8.095,9.805,31.135,-29.704,-12.068,10.310
5.236,1.701,-9.849,1.640,-26.454,12.201,-0.614,-5.228,25.519,-4.853,22.299,12.652,29.688,-33.839,-14.973,3.285
7.247,4.832,-25.230,12.553,-32.542,17.871,3.061,-11.106,28.823,-8.016,14.616,25.627,38.332,-43.083,-24.068,-6.547
3.285,8.231,-26.288,21.958,-33.445,28.929,4.845,-8.503,23.944,4.657,8.453,36.403,21.722,-41.423,-34.155,-25.190
-3.313,15.041,-26.879,19.013,-29.222,27.616,2.839,-15.366,29.132,3.521,-0.756,43.777,24.161,-46.228,-34.063,-23.626
-11.456,11.668,-24.021,25.517,-21.886,22.905,-11.294,-7.324,22.350,14.319,-3.698,36.363,27.920,-35.023,-46.441,-30.310
-19.391,13.760,-26.850,23.845,-18.737,28.298,-18.698,-8.575,16.512,21.514,-6.099,22.953,22.997,-23.304,-46.209,-32.552
-20.621,8.881,-38.020,14.933,-11.058,21.009,-21.259,2.298,10.340,28.657,-14.512,16.647,8.956,-26.498,-55.176,-37.535
-23.064,15.849,-30.792,6.569,-6.887,18.082,-21.033,6.993,11.023,22.576,-23.546,21.525,1.593,-24.722,-55.207,-34.980
-25.105,15.509,-29.514,2.601,-6.220,12.344,-21.725,-3.273,7.488,21.827,-23.427,10.853,-6.052,-14.062,-47.087,-43.362
-29.737,22.321,-20.020,1.041,-6.119,14.706,-14.865,-9.193,-1.284,23.777,-30.045,12.294,-23.197,-10.068,-41.742,-42.435
-16.541,28.237,-16.116,5.060,-11.400,14.983,-12.242,-12.051,-14.992,21.065,-15.275,2.057,-35.204,-3.040,-36.432,-50.886
-13.436,20.845,-16.506,-1.637,-7.348,2.706,-18.854,-22.608,-12.598,13.342,-20.439,0.918,-43.042,1.748,-29.517,-45.295
-17.427,28.648,-19.940,-0.002,-3.908,-2.649,-15.939,-26.427,-10.954,-1.046,-5.271,2.708,-41.837,11.740,-24.131,-36.793
-8.344,31.825,-11.195,2.357,-3.658,3.813,-16.029,-23.697,-7.168,-10.928,5.014,0.804,-43.894,9.751,-14.173,-33.721
4.365,30.749,-12.041,2.910,7.202,-2.627,-19.050,-30.171,-4.906,-24.351,6.598,-6.910,-39.920,19.359,5.695,-29.535
0.926,16.534,-5.284,-6.796,15.006,-0.141,-15.967,-31.628,-9.901,-22.508,17.836,-6.832,-36.058,27.633,18.474,-11.745
-3.412,6.886,-7.273,-5.156,17.372,-5.682,-2.005,-32.539,-5.702,-22.919,17.554,-0.023,-18.952,38.155,27.836,-8.942
8.732,5.668,1.109,-4.824,12.953,2.728,-7.301,-30.603,-12.828,-22.343,11.129,-5.657,-5.759,35.758,37.956,7.369
4.340,-8.172,4.551,1.546,9.656,-11.126,3.566,-28.347,-17.245,-20.967,22.755,-11.784,4.466,32.046,51.381,24.273
1.810,-16.696,-0.919,1.540,15.129,-6.224,4.133,-19.502,-15.734,-25.286,22.228,-7.066,16.334,34.133,52.056,30.839
12.195,-11.755,3.653,-4.507,19.081,-7.088,9.012,-19.841,-10.801,-19.561,17.881,-9.613,32.760,37.933,41.222,34.936
9.752,-16.715,6.423,-17.232,16.581,-6.208,2.414,-4.929,-12.887,-12.293,14.157,-4.974,43.015,27.309,29.441,39.685
7.198,-28.733,12.216,-14.338,11.033,-10.709,7.764,4.746,-0.142,-6.968,7.534,-0.208,49.420,12.381,18.367,41.202
9.257,-25.567,21.161,-14.028,-8.173,-8.271,6.931,15.681,6.171,1.535,3.313,-8.281,48.066,4.689,14.075,30.525
14.955,-20.175,13.855,-12.243,-6.995,2.764,14.392,13.908,-2.558,-0.386,10.632,-4.545,42.022,-8.742,2.596,24.176
20.706,-9.775,17.777,-15.484,-20.962,0.363,15.064,17.408,1.830,-1.882,18.407,-12.484,46.523,-27.697,-13.337,14.139
23.000,-9.217,17.594,-2.994,-29.575,5.607,9.067,19.706,7.965,9.557,19.526,1.045,39.610,-25.412,-20.609,-5.381
21.370,8.309,0.395,4.054,-29.138,12.442,5.125,16.840,7.838,3.866,7.548,11.955,32.952,-30.546,-31.805,-12.569
8.200,14.187,-17.070,7.886,-34.764,13.756,5.370,6.270,9.252,6.381,11.555,20.591,33.234,-31.746,-27.743,-26.035
5.354,10.989,-22.346,27.728,-37.119,26.323,-0.503,4.110,17.417,5.854,11.332,25.952,33.983,-36.717,-40.489,-25.073
-1.899,14.007,-23.500,34.248,-33.486,29.466,-7.031,3.066,17.505,6.745,3.439,25.211,21.169,-35.328,-48.264,-34.473
-11.819,12.406,-25.089,34.189,-22.990,44.140,-19.662,-6.178,16.124,9.770,-9.536,38.997,15.648,-31.628,-42.774,-47.928
-20.068,13.978,-40.385,29.535,-21.684,35.461,-23.177,-1.756,17.543,16.309,-17.682,33.788,4.340,-21.637,-44.479,-45.514
-30.689,5.566,-33.287,25.193,-11.504,29.006,-25.108,-4.246,0.589,13.705,-21.691,35.207,-0.026,-12.423,-36.514,-41.001
-30.368,8.267,-26.431,8.503,1.725,24.095,-25.784,-6.233,-6.419,9.199,-21.364,23.678,-14.774,1.857,-32.655,-46.175
-33.444,7.761,-20.503,9.073,6.567,16.715,-18.692,-16.537,-11.159,14.828,-15.121,8.418,-11.682,1.133,-28.287,-33.272
-32.993,15.080,-31.445,-1.438,9.772,9.876,-23.689,-9.715,-24.415,9.809,-21.403,3.536,-32.285,2.673,-15.445,-21.075
-36.955,13.909,-20.295,-18.456,4.775,7.156,-19.532,-12.463,-23.354,3.625,-14.096,-5.976,-34.644,20.311,-16.229,-17.070
-24.058,12.966,-13.908,-4.685,0.729,4.492,-10.641,-7.453,-35.240,9.572,-10.517,-16.490,-28.710,18.220,-17.762,-21.535
-26.354,14.267,-6.719,-14.209,3.267,-8.703,3.622,-14.468,-35.628,0.695,-3.610,-10.444,-38.968,16.014,-5.942,-3.416
-17.100,11.554,-3.745,-12.499,5.029,-7.504,2.456,-12.239,-25.567,-2.275,-4.842,-13.120,-29.570,22.725,6.762,-3.373
-10.714,10.847,-7.494,-11.039,-1.729,-12.536,0.352,-15.272,-16.329,-12.620,0.479,-13.092,-27.713,21.858,21.667,6.634
-5.237,11.168,-9.936,-10.746,0.822,-11.934,-0.523,-21.380,-11.389,-10.673,8.768,-5.478,-29.689,25.070,27.273,17.111
10.218,9.345,-5.344,-3.899,1.102,-13.722,0.396,-21.404,-0.604,-20.597,17.656,-2.992,-15.428,23.294,35.944,18.843
12.661,6.443,8.248,-4.751,-1.802,-8.802,-6.309,-17.946,-7.479,-15.986,30.534,1.530,-6.732,22.330,37.078,33.799
13.792,4.466,-4.264,-7.246,2.505,-5.962,-9.036,-12.439,1.934,-20.494,24.552,8.719,15.293,18.449,48.896,35.833
12.320,-4.204,-9.242,-6.527,3.821,-3.905,-6.987,-8.099,5.662,-16.294,14.496,14.541,21.800,12.464,35.576,39.699
17.646,-7.370,-1.578,9.521,9.816,2.016,-7.032,-2.467,8.469,-6.376,14.934,14.430,35.010,5.776,33.795,46.212
1.151,-18.550,10.592,10.963,11.698,3.600,-1.838,9.783,7.985,3.291,11.199,16.284,38.763,-1.766,25.896,39.564
-1.143,-19.345,8.449,9.545,-0.139,3.172,3.754,17.198,6.964,1.295,9.249,22.290,42.064,-8.544,13.826,54.573
-6.770,-17.158,5.331,8.977,-8.141,0.777,14.532,18.519,4.939,12.397,0.575,16.961,40.279,-21.404,5.604,53.894
-4.097,-23.561,-0.852,8.213,-13.237,6.101,17.576,28.657,-3.366,22.517,-7.272,13.318,40.172,-26.750,-13.625,37.002
-1.047,-6.519,-5.929,7.593,-18.727,4.360,5.490,22.419,3.752,19.190,-10.246,11.712,34.156,-28.692,-23.433,25.714
-6.431,5.633,-15.917,16.207,-19.328,7.503,9.448,24.051,8.358,11.720,-8.674,12.934,32.406,-37.662,-40.522,9.349
-9.596,10.587,-15.000,22.767,-24.054,11.470,4.774,27.120,9.328,16.470,-10.847,15.586,16.671,-48.504,-42.194,2.165
-9.151,16.525,-30.177,20.512,-23.758,4.418,-2.022,23.111,18.087,17.530,-9.714,20.831,3.729,-49.292,-47.814,-16.329
-8.990,17.184,-35.679,18.395,-27.504,15.060,-9.122,6.861,22.759,17.177,-8.214,25.080,0.987,-48.001,-45.189,-27.160
-13.306,26.134,-42.829,20.545,-24.116,16.993,-18.270,5.389,10.860,9.647,-8.180,24.397,-7.222,-53.302,-44.385,-38.257
-12.683,29.733,-49.306,22.299,-19.089,22.245,-21.978,-5.945,13.319,13.086,-13.983,22.879,-17.454,-34.472,-39.823,-45.787
-7.889,29.851,-56.011,21.525,-10.222,26.336,-34.635,-8.723,7.657,8.079,-22.325,20.599,-35.149,-22.804,-28.692,-56.185
-11.352,25.415,-57.478,29.619,-1.439,30.097,-40.727,-15.982,7.026,13.384,-16.900,20.194,-37.238,-12.752,-27.994,-54.030
-23.737,18.576,-46.064,31.608,-1.340,23.452,-35.203,-11.329,8.404,4.182,-15.647,27.507,-36.462,-1.350,-13.272,-44.868
-26.118,17.243,-37.343,13.386,6.242,17.753,-40.177,-18.301,-0.598,7.216,-19.815,29.577,-33.156,12.219,-13.447,-29.079
-21.479,13.368,-32.937,12.213,13.763,13.309,-32.787,-21.144,-13.315,9.434,-19.490,14.816,-36.269,19.094,-14.410,-24.933
-18.238,6.659,-23.169,6.745,18.927,15.921,-20.218,-18.238,-20.231,5.211,-18.148,12.883,-33.580,24.060,5.207,-9.739
-22.288,3.878,-6.361,-5.529,15.107,10.116,-21.168,-21.231,-21.746,5.850,-16.574,5.532,-34.436,34.301,8.578,0.687
-19.462,9.176,-0.880,-4.464,15.751,-13.723,-16.075,-20.437,-23.963,-2.523,-12.918,-2.445,-28.954,25.164,9.980,5.350
-6.120,1.064,2.193,-5.765,10.871,-26.199,-7.777,-8.994,-11.057,-0.150,-4.294,-21.018,-39.810,30.116,14.432,8.485
-1.355,2.243,3.006,-18.222,15.320,-26.761,-5.191,-4.467,-11.408,0.135,-4.129,-25.775,-31.258,34.443,17.158,9.852
2.771,4.492,5.988,-12.161,14.112,-16.360,-0.414,-6.201,-3.117,-9.625,5.619,-12.831,-25.587,22.771,23.244,23.812
10.500,2.337,3.694,-7.880,9.658,-21.333,3.492,-2.509,-3.295,-8.506,17.243,-1.747,-16.743,19.515,21.859,23.500
8.291,1.101,-2.801,-1.422,3.322,-22.791,8.057,-7.294,2.598,-16.270,26.042,12.865,-15.677,14.323,26.518,34.738
14.496,-6.391,2.504,-1.546,8.468,-8.929,13.621,-6.100,5.463,-15.532,33.736,17.412,2.133,7.578,26.195,30.240
18.233,-7.712,0.037,-6.212,4.594,3.470,17.393,-11.382,5.941,-7.074,30.877,25.009,15.022,3.323,31.377,26.698
15.802,-10.779,3.128,3.410,-7.291,0.138,9.542,-4.523,16.146,-6.450,33.514,18.688,27.130,-8.534,16.323,23.990
19.254,-17.555,2.136,2.099,-1.951,8.036,17.048,1.349,12.132,1.321,28.568,33.872,40.062,-15.664,6.212,24.596
6.166,-25.020,-3.273,2.556,-2.854,16.035,6.027,11.624,16.271,9.797,22.170,38.050,43.183,-16.289,-6.035,22.457
3.411,-26.399,1.963,2.220,-5.728,15.089,16.736,20.415,21.111,14.987,10.996,33.860,52.576,-14.245,-13.111,13.636
6.298,-16.213,-4.674,8.072,-18.204,12.464,16.222,32.526,20.983,16.373,3.240,29.025,47.910,-25.686,-26.970,9.576
3.787,-8.809,-14.688,5.980,-16.278,14.205,11.021,38.618,24.216,28.386,-3.103,27.051,41.571,-34.045,-38.021,1.332
0.661,3.040,-11.073,10.862,-17.540,16.441,14.233,23.068,22.092,31.091,-4.425,24.149,31.402,-36.370,-43.026,-9.007
-3.558,12.985,-5.711,11.734,-17.649,24.536,8.946,17.874,9.794,27.706,-10.814,23.893,14.035,-36.420,-48.467,-25.589
-1.675,15.096,-13.646,0.759,-21.201,21.450,1.499,16.736,7.177,28.243,-16.841,27.326,-1.795,-38.649,-58.552,-37.961
-16.467,17.053,-20.800,3.550,-31.454,12.056,-5.289,14.627,12.159,23.432,-14.031,24.524,-5.289,-40.777,-59.754,-39.045
-21.620,26.242,-29.408,9.104,-28.261,17.292,-9.739,6.929,12.592,19.718,-11.850,19.987,-13.179,-28.665,-63.746,-43.234
-23.237,29.317,-34.179,19.269,-20.678,8.876,-17.628,0.863,8.144,10.121,-7.667,31.587,-15.812,-21.589,-57.244,-52.485
-20.303,37.999,-45.354,21.414,-6.198,15.465,-19.643,-1.640,4.007,9.052,-8.186,25.265,-27.497,-2.200,-46.295,-47.794
-9.514,38.476,-37.677,27.961,-0.302,17.609,-21.945,-12.345,-1.727,3.939,-0.139,25.585,-36.664,14.070,-30.243,-49.011
-3.341,33.120,-33.883,24.682,9.194,19.061,-37.325,-27.683,-2.828,-2.484,-7.081,24.255,-39.193,25.428,-9.467,-37.729
-5.174,22.818,-28.190,23.521,16.196,20.342,-19.340,-22.210,-1.642,-3.786,1.080,18.425,-44.417,31.689,-8.338,-14.930
-9.579,17.449,-13.493,15.496,23.738,10.590,-11.357,-22.588,3.595,-8.184,-6.116,5.499,-35.237,39.185,3.285,-13.302
-7.877,11.957,-8.761,-15.306,21.673,-12.123,-10.436,-15.631,6.868,-4.228,-6.181,9.027,-38.684,51.838,9.982,-1.847
-15.143,0.579,-1.766,-15.861,25.186,-12.875,-9.155,-5.797,0.537,3.099,-0.272,-0.300,-26.949,54.395,22.751,7.232
-10.202,-2.492,0.030,-15.136,27.960,-17.741,2.543,-7.085,-6.897,0.980,3.077,-17.438,-21.772,50.818,41.740,14.576
3.381,-6.353,18.354,-17.162,19.255,-7.929,5.054,-6.741,-6.031,5.184,-2.740,-23.500,-12.584,49.789,43.912,16.838
10.067,-1.076,22.604,-11.432,8.670,-24.796,10.964,-1.642,2.316,6.072,4.496,-23.066,-9.773,36.023,36.202,26.235
14.531,0.295,29.922,-15.325,2.878,-20.305,13.435,4.889,4.291,2.806,17.258,-11.385,-1.478,35.700,31.187,36.347
21.948,1.735,28.029,-17.606,1.851,-20.702,9.492,4.586,10.986,-2.155,13.639,-10.545,9.435,23.431,22.801,38.328
26.947,2.506,18.352,0.221,-4.167,-12.013,12.685,7.470,19.752,-5.636,16.141,-1.538,24.760,10.831,20.549,30.745
23.371,5.255,16.084,-2.730,-16.210,-5.699,8.978,6.123,23.022,-10.218,16.674,4.513,28.130,7.333,16.038,26.749
21.356,1.840,17.051,-5.814,-7.456,-0.190,11.826,6.444,30.999,-9.454,18.681,12.635,37.657,-2.916,11.386,14.828
17.919,-3.036,11.469,-1.178,-12.607,13.705,10.699,7.595,26.031,1.160,14.496,13.981,39.222,-14.504,7.871,15.770
1.646,-2.676,2.930,12.999,-22.141,15.184,6.952,3.659,20.858,7.394,13.107,26.143,34.068,-19.083,0.634,13.736
2.561,-3.652,-7.809,15.112,-13.351,19.946,-1.525,13.014,24.239,8.336,9.058,23.227,32.027,-20.377,-3.636,9.438
-1.145,-0.063,-21.612,25.551,-7.293,17.093,-0.020,9.996,24.854,15.783,3.551,20.782,29.463,-22.989,-7.111,8.513
-6.840,0.143,-20.457,17.473,-10.030,21.092,3.944,16.960,18.887,23.142,-7.129,8.551,39.515,-26.317,-27.191,-13.552
-14.326,-2.921,-11.444,21.461,-14.408,21.058,5.278,14.209,14.013,34.513,-10.897,7.037,35.263,-21.955,-40.917,-17.371
-22.100,8.562,0.189,15.312,-20.445,19.227,6.793,15.558,11.890,36.519,-23.119,4.897,6.095,-19.772,-43.084,-25.792
-17.195,16.000,-9.610,4.366,-15.479,24.818,-3.017,18.596,7.998,40.494,-17.363,-3.341,-5.017,-28.229,-51.280,-37.824
-17.746,15.884,-15.076,3.209,-14.950,20.569,-2.500,11.934,-3.475,39.974,-26.314,-2.584,-13.301,-28.184,-51.430,-46.869
-19.566,18.219,-17.959,-6.097,-15.125,12.026,-10.635,3.621,-2.456,32.165,-20.750,-5.652,-31.382,-20.153,-53.245,-51.600
-14.115,23.087,-27.934,-10.223,-16.044,14.990,-16.465,-2.881,0.733,35.845,-15.362,-3.595,-35.493,-20.567,-48.902,-55.684
-13.687,23.743,-29.754,0.849,-11.407,16.347,-18.403,-0.251,2.691,36.684,-8.315,-7.268,-49.733,-9.785,-45.727,-43.661
-5.455,24.226,-22.278,-14.840,-2.519,14.577,-17.578,-10.715,5.846,18.149,-12.420,-10.145,-54.911,-2.031,-31.066,-44.993
-6.538,28.855,-26.175,-6.744,-0.359,17.198,-22.739,-16.219,9.471,1.581,-4.764,-17.665,-53.585,6.558,-11.938,-40.920
-7.379,29.952,-27.259,-10.154,0.585,12.434,-22.587,-21.811,6.808,-1.388,1.035,-15.513,-56.475,14.187,-2.820,-28.871
-8.862,24.159,-21.577,-1.460,9.999,9.754,-29.979,-22.207,6.157,-3.498,0.833,-14.663,-48.163,31.775,10.074,-25.895
-9.095,16.201,-19.127,-6.806,13.537,12.842,-29.837,-26.053,-2.635,-4.242,4.632,-16.041,-43.873,34.287,17.937,-19.793
-11.883,4.667,-8.241,-12.958,23.912,11.668,-18.216,-8.733,-8.237,-0.635,7.662,-8.610,-35.404,42.674,22.290,3.477
-5.183,-0.695,-3.167,-5.269,19.848,0.369,-6.621,-11.588,0.317,-8.191,10.735,-9.908,-14.390,49.647,21.799,16.498
-7.151,-4.444,0.211,-5.581,22.727,-11.872,-0.360,-7.858,-0.035,-5.914,10.581,-18.010,-6.717,43.581,18.671,26.968
0.528,-20.428,5.517,-18.619,14.243,-15.302,8.641,-8.128,-0.740,-13.195,11.337,-19.714,1.127,37.477,19.878,31.210
13.535,-8.712,12.044,-26.119,6.658,-24.543,21.628,-6.383,3.769,-6.159,10.400,-17.766,5.245,32.135,18.981,44.378
8.853,-9.700,21.001,-36.236,1.371,-25.623,25.881,11.712,0.660,-0.526,3.577,-17.327,10.646,21.810,11.645,48.587
22.257,-7.872,21.921,-35.247,-7.556,-18.607,21.633,19.306,6.420,-6.429,1.415,-18.070,18.738,4.321,-0.923,45.180
33.052,-9.459,17.977,-21.625,-11.944,-30.904,26.447,18.757,13.281,2.253,8.817,-3.616,13.794,-10.600,-5.059,32.470
26.823,-6.653,17.160,-18.894,-13.721,-21.073,20.603,19.615,24.440,-3.407,11.276,4.801,15.835,-15.261,-6.586,26.168
31.958,1.899,11.372,-11.870,-14.727,-11.206,15.967,7.961,24.387,5.151,16.084,5.307,16.284,-25.549,-16.919,22.028
32.448,11.334,-8.638,-1.008,-17.741,-5.907,20.290,6.612,33.251,12.844,14.135,21.715,15.176,-26.737,-17.022,15.775
35.838,9.818,-15.218,5.084,-30.985,3.965,3.955,7.331,33.377,6.550,19.476,26.998,19.903,-31.766,-26.347,1.727
28.644,10.157,-15.115,8.319,-26.949,8.500,0.455,-1.457,44.901,10.622,10.390,27.306,25.252,-31.160,-32.348,-1.869
15.520,6.280,-19.676,9.855,-23.732,21.845,-13.134,5.403,38.252,9.589,5.265,15.044,24.411,-28.315,-31.274,-9.707
2.601,13.987,-18.013,18.957,-19.547,26.812,-5.557,-3.116,33.447,16.889,5.082,21.687,18.813,-27.368,-40.759,-10.746
-3.682,8.540,-34.607,24.162,-13.580,31.562,-10.637,7.462,23.557,18.619,-1.849,20.304,5.628,-32.141,-47.235,-22.299
-4.087,11.536,-19.577,15.976,-6.496,29.737,-20.651,14.845,23.053,25.370,-11.619,23.122,-4.864,-18.534,-50.358,-29.271
-6.256,10.355,-21.912,14.922,-0.752,27.141,-13.779,18.873,12.066,27.935,-11.006,19.258,-6.564,-11.362,-49.664,-36.075
-9.511,13.465,-19.217,30.459,-5.830,18.504,-13.687,9.398,6.231,22.555,-18.231,15.761,-22.189,-10.933,-40.002,-37.492
-11.229,21.506,-24.312,23.237,-10.165,6.348,-10.593,8.550,-5.894,13.107,-6.541,13.510,-30.423,-7.292,-38.868,-44.286
-8.797,33.032,-13.943,22.407,-1.863,0.500,-7.470,10.245,-6.473,16.257,-15.300,4.259,-38.501,-2.692,-36.395,-47.942
4.231,36.302,-18.150,5.276,0.108,-4.182,-22.071,-1.965,-14.394,13.155,-13.604,0.585,-56.766,1.759,-32.538,-36.363
-0.447,31.842,-22.651,5.751,1.836,0.557,-18.813,-6.228,-7.364,4.229,-10.277,-7.550,-60.511,11.624,-16.653,-40.271
0.557,31.688,-20.955,7.582,-3.448,-4.918,-23.930,-10.411,0.908,-2.982,-7.522,-9.752,-49.073,17.338,-4.212,-37.176
5.519,29.507,-24.830,8.257,-2.820,-8.147,-21.537,-23.097,-0.707,-11.642,5.861,-10.920,-49.767,28.940,10.046,-25.507
6.894,25.726,-22.609,4.404,4.104,-7.710,-20.316,-22.122,9.754,-19.687,17.887,-10.102,-35.771,41.061,23.834,-14.248
9.825,14.231,-12.133,1.579,8.423,-5.920,-15.267,-28.377,3.858,-24.158,21.357,-6.820,-32.012,49.410,20.524,-2.636
9.108,4.425,-12.137,11.760,12.180,1.525,-16.568,-24.767,3.660,-26.314,31.278,-0.797,-22.504,44.303,36.311,5.686
-4.090,1.872,-4.823,-6.412,17.400,-9.683,-19.401,-25.079,10.792,-15.422,32.943,-1.877,-2.855,47.891,36.426,16.525
4.046,-10.528,4.310,-8.233,21.933,-8.660,-12.072,-9.575,8.010,-11.147,23.146,-1.571,7.514,47.523,39.332,25.845
13.456,-10.540,9.001,-3.822,20.236,-7.596,8.811,-2.817,8.592,-1.930,21.278,-4.290,8.632,41.670,27.763,38.450
14.435,-8.387,9.682,-17.848,22.923,0.305,20.683,3.533,2.111,0.021,19.871,-2.568,18.747,34.161,24.545,42.780
15.998,-17.528,8.909,-15.490,11.538,-4.241,15.762,2.647,8.148,1.576,18.760,-10.910,33.609,20.656,15.383,43.290
15.236,-18.445,15.272,-19.843,6.296,6.447,34.872,12.321,8.826,2.737,14.890,-14.735,23.898,14.132,2.468,38.205
25.803,-14.054,11.353,-28.507,-10.440,1.199,37.587,12.478,10.940,2.673,15.540,-5.573,24.256,-4.422,-8.603,28.430
36.913,-12.228,7.940,-18.141,-17.098,5.101,34.574,8.792,15.485,16.076,20.132,1.015,28.362,-17.429,-28.709,17.742
30.924,-9.287,8.374,0.762,-21.279,15.238,33.981,5.657,21.993,12.687,12.527,6.696,20.671,-31.625,-36.105,7.941
26.495,-1.523,5.720,0.012,-21.273,19.569,24.771,0.610,29.504,18.207,7.180,13.922,18.925,-39.200,-52.542,-10.968
25.295,8.832,-3.241,14.640,-24.746,7.229,10.090,3.557,23.776,19.806,5.511,12.040,10.952,-46.867,-55.346,-20.021
24.392,2.811,-8.723,16.742,-31.463,20.163,-0.498,7.570,32.476,1.461,5.381,19.768,2.881,-44.956,-48.365,-24.367
9.860,5.229,-28.086,7.738,-29.758,24.941,-8.609,-11.339,31.902,9.079,1.973,20.779,-2.779,-30.198,-52.430,-29.618
4.489,16.536,-35.422,14.060,-22.283,29.165,-9.982,-7.321,29.048,10.679,3.689,21.388,-7.035,-26.860,-40.982,-35.912
-2.657,15.611,-32.141,21.305,-9.997,29.848,-22.523,-8.596,23.613,7.881,-8.748,24.443,-20.859,-21.862,-40.795,-40.026
-14.899,10.718,-34.024,18.174,-1.007,40.316,-19.209,-10.762,18.431,4.476,-22.456,16.832,-17.909,-7.718,-43.907,-42.438
-15.481,15.434,-34.195,19.852,6.344,37.665,-27.883,-8.980,6.819,1.767,-30.680,5.800,-19.509,-3.911,-38.311,-37.966
-19.547,14.468,-25.850,7.313,11.109,30.693,-31.297,-8.464,-3.240,5.054,-27.157,-8.208,-34.383,3.192,-29.166,-39.493
-21.696,11.839,-11.492,5.956,13.362,21.274,-22.394,-18.329,-10.798,1.884,-12.577,-8.386,-37.920,16.356,-29.032,-26.679
-29.942,16.569,-14.954,-8.217,12.078,12.619,-12.839,-24.151,-15.476,3.478,-15.620,-15.923,-49.801,29.802,-28.605,-23.046
-18.424,12.085,-11.670,-22.750,11.921,1.544,-5.478,-17.116,-25.007,13.475,-17.898,-18.037,-52.488,22.692,-9.602,-21.471
-16.435,11.782,-9.847,-12.023,12.924,-5.072,-0.681,-17.009,-27.166,-0.809,-14.503,-31.586,-49.700,30.250,-7.901,-6.828
-6.760,9.636,-2.268,-19.040,15.578,-15.838,3.762,-24.552,-25.091,-9.168,4.107,-23.985,-38.018,29.194,4.433,-2.342
1.520,14.235,-9.704,-16.084,8.046,-15.052,-1.572,-18.435,-21.171,-9.357,2.691,-26.102,-48.480,24.362,15.569,12.337
9.832,12.592,-9.386,-14.625,6.569,-14.227,-3.950,-20.934,-11.537,-13.612,7.958,-17.692,-46.021,21.684,27.658,8.859
12.049,10.378,-9.227,-15.867,0.769,0.021,-13.172,-28.561,-4.765,-26.891,13.972,-15.248,-32.499,27.929,32.821,15.110
15.020,-3.435,-3.371,-8.193,3.042,5.276,-15.997,-30.470,3.804,-23.474,17.428,-13.841,-17.890,30.997,32.329,14.800
12.067,-6.414,-2.353,-3.455,6.372,1.703,-20.087,-32.695,-0.354,-16.891,24.667,-6.281,-9.027,25.999,38.822,30.131
8.174,-9.161,0.166,-0.071,2.885,6.405,-11.260,-15.919,4.533,-13.242,19.258,-6.309,8.001,27.446,41.063,29.115
12.569,-13.496,-1.392,-2.511,2.293,4.312,-10.179,-14.570,6.339,-8.805,21.397,-1.533,19.138,23.083,36.987,34.817
14.273,-21.157,9.951,-4.901,6.567,9.680,-6.377,-4.832,5.371,-0.300,18.341,-3.843,25.088,15.040,29.758,35.262
7.575,-21.461,10.682,1.595,1.319,-5.655,7.170,4.501,7.556,7.427,3.444,2.983,28.275,1.254,22.695,36.275
7.345,-24.230,7.314,3.127,-1.257,3.765,18.530,-0.434,5.175,10.757,-5.124,10.379,30.453,-16.354,5.326,29.387
4.786,-21.070,7.970,-0.214,-4.451,-1.802,23.303,19.654,9.724,19.093,-11.632,7.690,30.403,-26.474,-11.163,14.201
6.701,-2.697,7.043,0.484,-2.274,9.565,29.765,18.311,16.135,14.759,-19.819,8.924,28.992,-36.044,-24.132,2.319
7.761,10.929,1.738,2.692,-17.923,12.203,22.387,15.867,28.082,18.414,-9.333,5.812,19.646,-39.470,-27.913,-3.724
3.747,12.655,2.718,4.115,-15.141,11.783,12.657,12.391,19.782,18.018,-20.934,11.172,5.618,-42.723,-41.529,-17.652
5.134,13.556,-1.167,7.447,-17.474,19.814,4.750,9.435,19.055,21.435,-11.046,10.442,-0.713,-51.930,-41.290,-34.639
2.411,19.043,-12.756,21.025,-24.913,6.370,4.402,9.110,23.489,13.450,-15.486,9.199,-7.987,-48.579,-34.117,-44.885
4.428,28.305,-27.229,11.761,-21.814,10.729,-8.215,0.079,23.848,7.123,-12.930,23.644,-13.201,-39.835,-33.062,-51.170
0.353,24.065,-16.434,19.247,-13.486,20.725,-12.087,-12.250,24.339,5.971,-11.110,24.859,-20.884,-35.652,-30.179,-58.380
1.106,13.962,-29.431,24.970,-12.947,15.628,-16.031,-21.666,18.748,10.251,-16.286,24.967,-26.579,-17.367,-25.083,-62.420
1.904,16.574,-33.195,18.622,-2.122,29.345,-25.333,-26.866,12.159,5.392,-22.205,28.798,-29.346,-10.909,-19.950,-53.145
-9.494,18.546,-29.622,15.886,17.421,24.685,-25.756,-33.997,2.513,10.702,-22.670,14.913,-23.147,7.570,-17.075,-51.683
