Fp1,Fp2,F7,F3,Fz,F4,F8,T3,C3,Cz,C4,T4,P3,Pz,P4,O1
6.654,-0.276,-51.526,26.669,19.089,-6.440,-23.671,-24.922,16.001,-26.820,-24.602,10.373,30.743,29.363,-8.776,34.486
12.061,-3.469,-39.932,20.193,21.088,-10.824,-23.629,-18.235,11.633,-31.997,-23.611,7.694,25.488,40.172,-8.744,37.596
11.251,-1.895,-54.134,28.560,21.639,-12.850,-16.976,-16.122,15.206,-28.500,-25.474,0.550,30.080,35.478,-11.292,33.651
10.976,-12.244,-47.247,32.211,24.972,-11.260,-21.320,-14.453,5.632,-30.412,-19.659,5.451,25.553,36.572,-14.765,35.547
11.000,-10.063,-34.208,33.683,17.518,-8.875,-18.447,-9.880,3.360,-30.253,-20.274,8.233,21.320,36.379,-9.847,33.561
20.462,-13.110,-30.151,46.386,9.636,-8.044,-11.138,-1.822,-0.372,-32.745,-20.069,11.559,28.350,43.012,-13.574,26.011
23.730,-15.863,-24.852,42.288,4.753,-11.976,-3.182,-11.919,-1.442,-34.922,-10.206,21.554,27.796,50.139,-16.850,23.861
20.130,-14.745,-26.465,44.700,-2.653,-2.557,-2.733,-11.964,-3.124,-36.975,-6.853,21.474,31.654,47.608,-23.851,24.880
15.303,-12.627,-25.540,41.784,-4.573,-2.237,7.203,-6.805,-10.510,-34.441,-4.994,24.310,29.690,42.899,-18.185,23.804
17.685,-11.719,-22.143,34.220,-3.425,-2.868,10.759,-9.419,-6.835,-31.965,-7.852,25.939,38.865,43.152,-16.710,11.695
14.593,-12.596,-20.744,23.615,-7.015,-1.511,13.600,-4.481,-10.180,-32.742,-5.976,25.773,34.890,49.222,-25.135,19.218
14.057,-14.599,-17.481,32.518,-9.963,4.924,13.410,-10.961,-9.575,-33.695,-0.248,28.304,37.738,41.249,-31.431,11.200
12.107,-20.153,-20.100,18.044,-8.581,8.790,16.768,-8.782,-9.372,-30.025,1.087,29.950,41.922,45.760,-33.374,13.981
18.696,-17.051,-11.192,24.605,-10.265,13.109,13.312,0.645,-8.948,-34.809,8.055,31.271,42.515,54.688,-31.651,20.387
18.820,-13.761,-10.266,18.931,-15.550,14.750,19.970,3.382,-16.481,-35.467,11.582,32.196,42.933,47.254,-28.869,10.845
19.459,-20.629,-17.532,26.323,-19.659,22.644,18.675,6.985,-7.682,-37.070,6.016,31.260,45.603,51.649,-33.965,12.094
12.923,-22.244,-17.100,18.716,-13.214,24.208,29.109,12.887,-1.510,-41.222,8.334,31.356,49.945,50.419,-33.430,8.351
18.248,-22.482,-7.147,20.108,-10.355,31.055,28.538,0.665,1.035,-37.446,4.010,29.682,46.470,43.175,-30.432,4.942
25.727,-25.365,-9.756,20.716,-22.184,31.642,31.547,-1.355,-1.139,-37.505,8.503,26.126,44.924,49.309,-32.135,4.721
20.054,-23.142,-1.356,23.680,-26.028,26.262,32.543,3.751,-3.952,-29.311,9.839,24.861,48.202,57.431,-42.765,7.459
24.127,-27.735,-7.712,22.765,-29.459,23.752,35.469,2.525,-7.027,-34.516,5.938,21.506,55.095,55.285,-39.174,4.082
26.616,-34.371,-3.650,12.198,-36.985,32.798,33.983,2.790,-1.899,-32.969,11.737,24.160,47.859,51.845,-39.048,-6.940
23.005,-30.491,-5.100,8.472,-36.610,39.114,37.483,7.154,-16.469,-30.468,11.875,19.341,45.341,49.149,-42.657,-5.590
33.940,-21.096,-3.907,9.375,-38.998,30.625,37.379,15.105,-21.029,-32.438,20.922,22.232,53.090,46.828,-37.942,-5.802
33.842,-19.976,-4.152,8.597,-42.113,33.515,44.320,20.902,-15.239,-28.110,17.596,19.505,52.022,43.221,-39.072,-2.711
36.648,-18.089,-0.598,-1.660,-34.922,45.312,44.454,18.507,-7.981,-31.102,22.494,19.975,46.701,40.611,-38.958,-2.961
35.855,-19.292,-0.204,5.068,-39.776,50.592,40.113,24.365,-5.354,-34.177,18.834,21.717,47.189,34.561,-43.002,-3.885
43.783,-31.690,-3.780,2.509,-33.631,41.918,38.870,20.700,-2.143,-30.142,17.239,16.692,39.316,34.845,-43.053,-0.008
46.596,-33.796,-3.935,2.080,-31.995,47.596,46.447,31.620,-7.344,-28.690,14.210,25.820,37.594,39.574,-45.679,-2.613
43.928,-27.231,-1.475,-1.234,-47.662,53.325,44.009,32.924,-6.912,-21.407,14.710,28.919,39.866,40.190,-37.024,-3.605
40.608,-28.874,0.142,-2.492,-42.018,54.940,42.882,30.525,-7.793,-21.140,15.093,29.881,41.138,43.044,-34.890,1.498
42.242,-30.186,-1.564,-10.063,-43.431,48.145,40.437,36.706,-15.888,-12.148,13.551,30.415,42.111,35.345,-41.966,-7.099
46.963,-29.847,-4.400,-14.693,-42.874,51.856,47.770,38.345,-20.170,-22.311,15.615,30.317,37.650,30.239,-37.008,-6.773
44.039,-22.280,-2.404,-12.062,-35.659,46.624,40.607,37.299,-21.610,-13.204,14.753,33.037,42.969,23.105,-37.610,-10.543
41.077,-19.644,-1.060,-22.042,-43.196,46.049,36.595,41.071,-19.349,-12.585,18.666,24.858,43.037,21.969,-29.823,-15.110
41.380,-26.562,0.401,-21.463,-40.403,44.347,32.246,41.064,-18.292,-14.101,17.468,19.852,37.925,15.764,-34.249,-12.381
40.671,-36.228,-1.097,-19.344,-35.115,53.247,32.438,47.250,-19.678,-7.638,13.915,20.706,41.092,19.302,-33.096,-11.916
35.227,-28.267,1.471,-18.833,-34.511,45.409,30.540,40.804,-22.885,-8.220,15.301,17.304,43.033,17.196,-34.909,-9.055
40.480,-26.901,13.906,-21.984,-31.073,49.977,33.861,42.342,-31.034,-3.724,13.382,23.914,37.596,11.295,-36.888,-9.247
36.401,-32.623,11.916,-28.886,-35.515,58.865,31.628,36.581,-38.536,-1.073,17.250,25.100,41.228,-1.607,-30.535,-9.111
44.602,-28.935,2.528,-27.849,-30.656,59.121,23.972,35.979,-32.316,9.687,13.807,25.686,35.388,2.134,-31.510,-10.743
42.778,-27.351,6.567,-32.718,-35.349,53.529,23.267,39.126,-28.676,5.554,20.064,19.591,34.188,-4.397,-25.202,-13.720
42.431,-33.580,11.205,-33.916,-33.135,52.627,29.551,43.005,-33.397,7.127,10.284,21.678,20.980,-5.852,-27.239,-8.667
39.401,-29.203,8.341,-46.411,-36.559,51.007,18.464,46.696,-36.877,3.306,11.898,23.665,25.491,0.204,-18.700,-7.645
44.203,-31.710,18.897,-57.712,-40.449,54.133,27.794,48.478,-34.107,17.329,13.098,24.670,20.446,-5.181,-22.741,-11.254
39.131,-33.274,14.972,-55.025,-36.266,52.306,21.412,45.962,-35.389,15.415,6.949,26.387,13.812,-11.967,-23.215,-12.320
38.025,-31.659,11.183,-51.946,-34.208,56.994,30.065,49.224,-40.115,16.764,11.982,25.459,14.458,-14.328,-9.525,-20.037
33.470,-33.748,22.958,-48.432,-29.673,60.456,27.500,52.580,-33.095,19.438,11.948,27.801,8.499,-18.173,-12.661,-17.751
33.678,-25.569,24.437,-56.111,-29.391,51.877,21.653,55.627,-40.609,26.818,18.832,34.060,-0.540,-23.515,-17.478,-23.320
29.821,-25.940,28.891,-57.675,-41.102,46.638,23.330,54.048,-36.883,26.922,16.569,28.023,3.327,-17.768,-12.736,-21.324
31.027,-21.736,24.913,-54.356,-35.938,46.111,30.126,57.059,-27.484,35.399,21.889,25.965,9.072,-22.726,-9.364,-22.483
23.326,-21.504,29.685,-57.793,-36.119,49.780,24.286,50.184,-26.014,35.555,22.712,21.365,3.944,-21.688,-6.241,-16.972
25.232,-25.481,31.651,-56.478,-28.852,47.497,29.563,56.129,-27.421,33.012,20.702,21.248,-3.874,-22.649,-5.453,-16.325
24.442,-20.560,23.893,-56.250,-28.463,49.722,23.576,54.372,-25.840,40.023,16.645,18.013,-4.735,-29.235,-0.326,-15.712
26.842,-30.328,29.384,-63.649,-24.464,40.557,15.005,53.017,-24.396,39.124,10.910,19.484,-5.071,-25.708,3.320,-19.301
23.277,-22.133,23.675,-57.371,-24.621,38.852,16.711,54.201,-33.669,42.833,14.332,16.189,-11.961,-30.446,3.546,-24.515
17.860,-22.635,26.530,-55.183,-26.056,38.667,14.742,46.714,-32.604,44.868,8.275,25.400,-18.229,-29.226,13.875,-22.102
10.574,-14.014,30.434,-59.589,-23.389,38.723,12.305,40.420,-38.414,37.050,13.595,22.705,-18.447,-31.616,11.349,-21.734
-1.420,-15.542,26.363,-62.318,-20.774,30.567,10.634,38.483,-39.248,48.767,16.567,20.860,-24.843,-34.506,13.683,-21.481
-7.042,-20.349,30.156,-56.161,-19.819,31.659,7.537,35.854,-40.231,49.101,18.005,25.456,-29.709,-38.053,17.288,-15.530
-8.442,-14.598,43.296,-62.477,-13.934,25.414,8.913,36.484,-39.983,52.060,17.935,23.513,-21.195,-32.148,21.342,-15.250
-10.138,-19.561,28.118,-56.991,-11.678,25.126,9.649,33.625,-37.267,42.237,17.210,26.784,-19.221,-37.471,17.977,-9.017
-2.344,-14.356,30.660,-52.289,-7.302,15.517,12.902,37.614,-40.919,42.751,17.566,35.807,-22.285,-30.758,20.283,-16.045
-4.950,-4.365,40.356,-53.457,-14.798,12.034,9.130,39.654,-37.500,41.832,19.253,29.465,-27.800,-24.378,30.627,-19.138
-8.570,-0.852,37.437,-56.012,-6.275,10.364,9.298,39.722,-38.698,42.056,15.383,23.952,-31.261,-27.008,22.656,-18.425
-20.063,-9.461,42.410,-60.272,0.937,-3.575,5.208,31.199,-29.974,35.019,17.894,12.962,-36.143,-39.567,25.568,-14.144
-19.262,0.994,34.328,-65.540,-2.380,-7.300,4.500,20.561,-31.506,39.108,18.412,12.090,-31.459,-47.209,23.184,-15.736
-29.206,1.849,34.750,-66.867,1.288,-5.860,7.824,6.401,-29.169,38.555,12.613,3.644,-32.962,-47.418,23.040,-17.933
-25.920,10.264,39.085,-64.985,-2.685,7.725,4.925,7.619,-27.860,44.128,10.118,-0.258,-34.323,-37.749,21.121,-17.721
-23.622,-4.596,47.055,-67.529,1.391,1.900,6.940,-2.003,-32.315,43.974,9.207,1.301,-25.879,-39.679,26.945,-26.784
-21.805,-7.318,43.342,-59.540,2.165,4.272,-0.502,-4.597,-27.564,41.315,5.930,0.028,-36.350,-50.583,33.242,-34.411
-28.120,7.545,44.542,-49.148,4.246,11.555,2.718,-1.852,-17.078,43.511,7.250,-3.938,-40.456,-45.095,31.688,-32.708
-28.448,11.229,39.117,-50.084,12.716,4.305,12.969,-7.328,-16.619,49.310,7.658,-7.283,-37.367,-36.466,36.861,-27.896
-25.897,7.371,39.559,-48.705,14.687,3.220,15.324,-19.231,-6.553,45.868,8.113,-14.255,-45.488,-38.799,31.928,-27.428
-27.181,7.185,36.724,-40.508,21.601,-4.548,8.108,-13.843,-11.896,47.681,5.257,-2.838,-43.480,-42.534,35.122,-24.618
-36.348,14.177,35.075,-28.906,9.523,-4.296,-0.867,-20.801,-2.763,43.503,11.153,-11.570,-33.528,-45.391,32.063,-23.606
-34.367,12.581,26.836,-18.099,4.419,-9.398,1.222,-24.056,0.208,45.278,9.018,-12.141,-37.387,-36.868,35.295,-27.520
-38.188,21.000,21.297,-24.004,16.118,-14.073,7.545,-34.655,-4.937,40.585,5.055,-7.101,-35.996,-45.120,32.619,-33.140
-43.527,21.530,25.650,-21.120,16.749,-13.347,-2.464,-26.745,6.268,39.985,10.453,-9.886,-39.654,-44.605,30.595,-33.143
-42.342,29.198,22.828,-28.836,12.823,-17.596,3.362,-23.613,-0.968,30.556,9.452,-19.915,-36.177,-44.712,34.210,-30.896
-43.768,29.985,12.268,-35.846,17.311,-22.789,-4.866,-30.759,-3.345,33.392,5.533,-21.903,-41.979,-30.099,31.117,-29.767
-45.348,30.554,13.795,-34.978,26.898,-25.977,0.500,-31.663,16.504,33.039,8.916,-35.326,-37.108,-30.409,25.825,-24.913
-42.434,31.896,14.447,-25.918,33.801,-23.303,2.324,-28.960,10.048,29.587,7.360,-19.931,-30.914,-43.026,33.143,-26.456
-45.905,39.498,19.109,-28.998,19.075,-19.431,-2.512,-39.180,24.821,37.261,4.796,-30.626,-33.273,-36.527,34.248,-26.254
-45.367,31.542,18.973,-21.280,23.696,-18.437,0.393,-47.203,14.977,28.412,7.230,-38.360,-27.762,-44.291,35.551,-26.759
-47.009,41.074,19.412,-19.714,16.598,-27.895,-1.780,-42.103,14.003,30.869,2.554,-40.388,-30.955,-37.583,37.994,-21.855
-42.144,39.938,20.761,-16.973,26.335,-23.572,3.541,-37.428,20.523,24.883,1.028,-39.120,-31.711,-33.864,39.328,-26.990
-40.587,38.183,9.593,-6.173,19.393,-29.296,-6.877,-40.879,27.922,25.996,-1.283,-40.410,-24.334,-23.039,28.399,-22.840
-37.710,43.346,6.481,-2.683,15.849,-32.349,-4.667,-37.806,26.482,29.411,-1.981,-44.210,-23.564,-25.170,32.537,-21.172
-40.712,37.964,2.085,-1.815,13.816,-33.427,-4.353,-38.537,29.192,36.549,4.306,-47.832,-20.153,-25.810,32.217,-17.857
-37.612,35.578,7.935,-1.873,20.817,-35.016,-9.719,-37.964,32.491,26.864,-2.356,-44.995,-18.683,-27.038,25.005,-14.074
-34.102,43.191,6.332,10.678,28.615,-28.407,-6.003,-44.350,38.290,20.357,-2.668,-52.395,-13.699,-20.728,19.583,-17.964
-32.381,39.931,9.150,12.956,27.327,-36.720,-13.263,-42.912,36.070,26.683,-0.788,-54.153,-12.466,-20.524,23.265,-14.353
-35.037,35.239,-0.903,3.456,32.119,-38.515,-18.138,-43.832,38.603,18.632,-8.247,-56.324,-7.689,-13.071,25.389,-12.511
-31.925,36.705,-5.705,1.935,22.792,-34.743,-17.528,-50.259,33.558,16.017,-6.440,-58.392,-6.818,-16.213,24.728,-9.018
-33.756,44.033,-2.003,11.168,17.692,-27.853,-13.345,-46.831,35.887,21.902,-9.266,-53.878,-10.103,-21.707,24.466,-3.115
-39.845,45.371,-17.049,20.934,23.589,-27.296,-17.312,-48.489,46.244,15.913,-7.020,-55.142,-5.995,-16.219,21.775,-1.123
-31.515,51.430,-28.150,17.129,29.335,-32.478,-20.279,-46.478,45.811,20.633,-12.639,-51.374,-3.110,-13.129,16.850,-7.596
-30.521,52.229,-24.734,11.759,20.570,-38.063,-20.189,-47.686,50.245,14.690,-11.585,-50.754,0.799,-10.848,16.808,0.737
-23.736,56.649,-32.271,17.391,30.255,-37.225,-27.253,-47.838,47.581,16.415,-7.590,-50.659,4.076,-10.608,14.694,0.832
-26.875,53.054,-30.966,13.834,27.239,-28.657,-28.699,-38.367,52.329,18.656,-11.341,-48.019,11.847,-9.989,13.464,8.779
-35.275,41.998,-22.173,19.980,23.515,-35.329,-29.066,-45.343,54.560,11.748,-12.855,-46.964,9.501,-4.730,19.679,8.543
-27.171,42.053,-29.830,27.362,18.491,-35.095,-22.311,-42.354,55.271,11.552,-21.453,-55.086,6.210,-1.695,9.170,1.479
-21.227,45.979,-29.342,26.131,18.435,-27.045,-19.261,-41.313,57.291,4.032,-18.589,-54.744,12.204,-2.496,11.209,0.450
-23.803,49.935,-38.924,26.324,21.946,-29.802,-23.117,-37.227,63.178,1.297,-18.612,-55.276,16.837,-7.785,15.413,10.080
-27.205,46.614,-35.286,30.780,18.710,-31.451,-24.128,-36.554,62.241,3.550,-23.907,-52.028,19.633,-5.095,11.990,12.779
-21.774,47.006,-28.410,12.441,25.792,-33.117,-29.906,-41.360,56.916,4.328,-23.405,-55.492,22.684,-3.224,6.606,20.442
-21.386,39.673,-41.340,20.035,20.059,-26.948,-29.403,-37.088,55.529,-0.205,-29.587,-46.833,29.241,3.507,7.655,19.412
-12.550,35.057,-48.869,27.243,16.672,-21.469,-27.022,-33.929,51.414,2.590,-32.410,-50.251,24.924,6.657,6.452,17.752
-10.731,34.302,-48.816,21.731,17.258,-21.399,-30.361,-29.994,48.312,1.814,-25.018,-49.091,25.420,7.317,8.382,19.092
-12.263,34.259,-43.007,21.024,7.431,-30.631,-28.937,-29.466,50.873,0.884,-24.652,-42.627,30.899,8.607,13.107,16.532
-8.708,29.952,-38.443,21.531,4.354,-31.025,-28.643,-24.224,43.580,2.131,-32.575,-32.582,24.002,4.620,10.412,20.011
-18.195,31.092,-49.299,17.509,1.031,-30.957,-32.474,-10.316,43.840,-1.861,-35.060,-28.345,26.778,11.152,7.109,22.540
-9.349,29.366,-64.181,22.474,5.979,-24.460,-30.042,-13.916,47.114,-1.519,-32.527,-31.888,25.980,5.337,4.295,27.056
-9.796,27.500,-65.131,8.662,0.088,-26.928,-30.869,-14.331,45.530,1.696,-26.548,-33.119,29.404,-0.316,-1.919,26.982
-12.997,21.125,-58.384,14.031,12.708,-21.189,-31.582,-11.515,43.549,-0.016,-36.917,-24.040,31.059,7.088,6.596,30.234
-2.862,25.122,-64.862,18.904,13.896,-21.220,-33.267,-8.058,46.519,-2.591,-37.806,-22.739,32.561,4.425,8.639,25.961
9.536,20.670,-63.510,26.458,7.727,-26.198,-32.369,-0.321,48.490,-9.336,-43.169,-26.821,34.926,7.153,4.528,31.385
13.086,25.570,-59.322,29.075,1.347,-25.318,-32.628,-1.249,49.535,-4.938,-36.098,-24.182,34.295,12.619,2.086,30.401
9.628,15.296,-66.374,28.810,1.874,-23.280,-31.785,-7.429,50.913,-0.578,-41.217,-16.297,37.891,8.728,-0.828,32.977
15.707,12.200,-69.825,22.831,7.094,-24.419,-33.605,-0.212,47.283,-11.047,-41.227,-15.825,40.896,13.857,0.562,32.923
10.296,10.361,-65.288,13.081,14.037,-19.439,-27.506,6.829,48.426,-0.600,-47.794,-17.531,37.902,8.594,-9.733,42.748
10.318,5.360,-63.344,21.584,14.838,-16.196,-24.097,8.854,44.096,-2.641,-52.597,-8.615,41.416,6.067,-5.678,40.326
4.972,2.196,-64.545,27.314,12.690,-16.310,-26.448,1.123,32.680,-5.340,-41.409,-1.990,37.027,8.361,5.020,37.857
8.688,2.367,-70.406,20.848,15.424,-20.247,-18.905,-1.029,32.205,-5.499,-42.709,-9.207,37.948,5.368,0.165,37.704
9.796,-2.550,-66.131,25.125,18.967,-23.735,-24.979,8.189,32.017,-4.265,-44.289,-8.765,39.839,6.671,-5.158,44.841
8.896,-4.887,-64.333,18.986,7.775,-24.903,-21.673,4.222,20.396,-2.349,-35.677,-1.317,42.968,0.643,-5.092,48.739
11.334,-9.660,-64.343,27.513,12.479,-21.328,-19.787,1.163,25.831,0.128,-36.314,3.316,43.210,12.844,-11.205,53.726
8.308,-9.896,-60.074,32.952,10.360,-23.168,-20.621,0.702,27.727,-6.034,-36.205,3.589,38.753,12.760,-13.437,49.223
15.468,-14.400,-60.117,21.928,12.343,-19.817,-15.545,-2.391,22.299,-14.806,-37.392,6.518,45.174,8.076,-13.336,47.024
22.894,-14.586,-64.621,26.231,10.565,-17.362,-12.943,2.222,10.090,-17.928,-38.401,5.900,48.406,24.030,-13.801,45.715
19.362,-6.143,-64.498,16.847,10.602,-10.055,-15.410,9.030,11.432,-14.743,-42.204,12.539,43.826,21.665,-14.881,49.059
21.008,-15.434,-58.163,25.977,6.894,-13.008,-18.494,4.895,9.585,-24.717,-39.952,8.078,41.245,27.639,-13.844,43.853
19.213,-20.639,-52.731,24.011,9.578,-18.961,-6.194,5.731,12.269,-25.751,-33.631,13.991,34.873,29.008,-7.759,47.724
19.163,-29.366,-59.426,27.754,3.605,-10.480,-9.473,-0.971,17.298,-21.383,-31.401,19.968,35.485,16.497,-14.050,48.731
14.630,-26.791,-49.487,23.888,-3.235,-5.838,-7.463,1.412,13.019,-18.369,-33.926,22.068,36.511,23.874,-9.413,49.653
19.009,-22.068,-49.084,31.067,3.719,-7.334,-4.857,2.306,9.175,-20.445,-30.590,22.993,36.655,27.644,-9.862,44.946
24.827,-36.437,-46.889,29.648,7.310,-7.149,-2.621,-0.518,3.221,-29.289,-30.043,16.359,35.212,19.554,-11.418,53.915
22.253,-37.903,-42.249,22.987,3.727,5.067,2.340,7.666,2.740,-23.856,-30.744,23.919,33.379,22.461,-14.805,46.757
18.257,-36.703,-35.165,11.548,3.678,-0.894,6.174,15.081,-1.562,-20.692,-24.398,31.199,32.964,21.994,-14.184,46.431
20.278,-38.756,-42.427,20.707,4.719,-1.677,8.599,19.251,-12.414,-21.996,-31.152,28.680,32.512,28.820,-16.107,47.423
28.682,-38.507,-43.839,24.672,3.901,-3.023,7.549,21.282,-14.977,-20.790,-29.905,32.915,32.661,25.028,-16.122,42.084
24.351,-24.018,-36.631,18.851,-2.576,8.332,4.258,17.742,-19.803,-20.314,-21.525,22.849,31.328,21.307,-11.947,44.539
27.407,-32.356,-28.254,12.879,-6.478,7.070,10.344,16.313,-19.267,-23.283,-20.002,26.909,34.120,29.153,-18.889,46.908
28.486,-41.572,-22.056,16.424,-7.729,-1.042,19.750,24.753,-18.744,-29.159,-12.401,39.462,28.036,31.043,-21.154,39.421
19.023,-41.040,-10.885,10.714,-8.651,-0.297,22.734,17.901,-27.446,-30.953,-10.731,38.516,30.800,26.937,-24.061,35.921
24.825,-40.242,-7.764,17.471,-16.176,4.938,22.542,24.699,-36.987,-30.537,-5.182,36.463,22.776,28.588,-21.031,36.725
26.650,-35.028,-10.863,11.843,-23.459,-5.120,23.280,22.325,-34.178,-39.378,-6.905,32.635,22.465,31.985,-23.299,41.639
24.664,-41.117,-1.059,13.575,-23.792,8.984,20.094,25.576,-33.794,-33.549,-1.246,41.516,21.656,32.945,-21.430,33.043
29.742,-41.959,-22.265,11.048,-20.623,5.926,32.398,33.589,-27.653,-27.541,1.541,41.228,17.229,25.553,-23.007,30.077
23.348,-34.503,-16.023,14.958,-18.792,9.616,38.945,25.004,-27.983,-30.785,2.839,41.289,20.671,24.104,-25.365,27.034
33.246,-37.480,-2.590,4.760,-20.951,15.612,32.829,26.449,-23.094,-30.021,3.744,42.410,14.997,25.725,-24.798,22.010
29.244,-39.879,3.696,1.215,-25.962,13.073,43.267,33.617,-33.406,-32.205,3.107,37.722,8.859,26.926,-25.010,21.080
32.262,-46.314,4.907,3.713,-15.890,14.560,39.604,28.673,-32.963,-26.015,7.863,44.425,16.003,23.966,-24.099,31.344
37.273,-46.098,11.824,9.037,-22.620,11.771,39.812,29.603,-35.157,-24.721,18.871,45.687,18.002,25.230,-32.148,27.164
31.768,-42.054,14.899,8.089,-20.355,19.658,41.691,38.223,-37.980,-23.172,11.284,39.926,14.182,28.826,-35.765,15.379
31.574,-43.699,21.423,1.160,-23.139,25.776,44.409,42.130,-42.368,-21.163,22.309,46.606,16.558,29.857,-38.057,20.748
32.237,-46.953,16.986,7.583,-28.981,27.072,54.665,39.178,-42.645,-17.643,24.298,43.552,14.798,26.683,-23.730,8.478
27.022,-45.736,24.918,8.862,-28.182,28.949,52.943,41.583,-55.832,-21.886,27.412,45.843,15.600,24.440,-28.697,-3.817
35.450,-41.484,14.924,5.793,-25.988,27.348,48.962,42.233,-45.387,-20.782,21.272,36.128,10.554,25.290,-34.870,5.061
31.870,-33.163,17.573,10.766,-27.626,35.248,54.275,33.234,-48.111,-29.832,24.231,42.287,9.103,25.759,-29.144,8.076
31.821,-42.375,19.612,-1.088,-18.430,29.919,52.516,28.757,-44.173,-32.640,22.337,47.478,8.656,25.271,-25.848,2.535
32.113,-34.468,27.130,-4.566,-20.940,29.906,47.562,27.295,-41.378,-33.738,29.655,45.184,10.306,23.165,-26.106,-0.760
40.538,-32.504,25.856,-12.568,-24.626,34.822,46.510,30.841,-40.607,-23.493,32.702,38.743,7.492,27.976,-24.572,0.188
37.641,-32.649,27.172,-7.399,-26.293,42.755,55.540,49.634,-43.014,-26.492,27.324,43.823,11.728,32.764,-27.812,-6.432
34.808,-24.156,39.765,-0.994,-16.947,43.661,60.454,47.369,-43.978,-23.209,33.926,41.736,3.221,22.234,-27.873,-7.342
23.933,-24.640,37.622,-13.958,-24.817,45.211,61.304,49.184,-37.255,-23.615,32.922,38.826,2.501,17.398,-31.061,1.347
29.614,-27.440,33.119,-7.879,-27.039,40.307,68.071,47.415,-35.763,-18.609,32.812,34.620,-3.427,15.669,-28.650,-7.000
24.880,-30.713,41.765,-13.425,-30.679,32.788,58.354,51.144,-31.028,-17.989,26.263,36.800,3.083,12.751,-21.623,-12.313
26.067,-30.995,40.314,-19.412,-31.090,41.038,62.857,43.441,-36.585,-11.209,30.121,44.043,6.214,3.921,-30.576,-17.028
26.629,-24.059,45.917,-18.009,-34.155,37.791,66.574,37.220,-33.989,-10.175,34.636,32.174,3.801,0.546,-33.945,-18.747
19.138,-23.114,35.423,-16.331,-24.643,38.390,62.281,45.959,-17.473,-5.529,38.321,32.825,6.358,-1.039,-25.874,-17.415
21.648,-28.315,32.958,-21.107,-23.812,38.505,55.941,45.757,-22.155,-0.339,38.255,27.285,5.358,0.741,-26.901,-17.794
24.294,-28.655,43.795,-11.719,-27.356,44.734,56.173,56.507,-21.277,-1.014,36.686,16.714,4.494,0.034,-26.178,-28.588
28.144,-22.201,39.753,-20.017,-31.171,39.271,51.277,50.258,-28.113,-2.949,37.241,14.847,-0.644,0.545,-28.577,-25.947
27.587,-25.959,46.230,-29.090,-34.589,50.728,43.243,53.984,-24.830,-4.081,28.350,19.757,0.871,-3.083,-25.686,-18.744
29.590,-19.689,45.679,-24.159,-41.175,40.917,46.604,70.634,-23.596,-0.746,37.727,21.090,7.228,-9.464,-21.000,-18.793
22.535,-21.122,43.317,-29.256,-39.605,41.250,46.913,58.491,-20.347,2.791,38.104,17.258,3.967,-17.243,-21.084,-36.726
26.539,-21.378,42.413,-34.030,-31.715,44.233,46.174,51.939,-20.995,8.586,37.609,17.294,6.550,-16.524,-25.428,-37.795
20.329,-9.991,40.291,-34.970,-34.897,39.048,40.143,53.866,-24.270,8.364,37.278,4.483,5.007,-13.763,-24.123,-36.425
24.187,-18.044,37.158,-35.735,-44.078,45.058,45.122,52.509,-18.447,11.492,29.870,9.009,0.993,-12.023,-12.204,-29.007
30.485,-12.080,39.401,-40.358,-28.356,43.420,46.414,47.278,-14.772,20.971,27.603,15.652,-7.808,-16.613,-11.598,-32.389
18.077,-9.870,44.981,-42.446,-30.172,42.810,38.676,51.371,-22.417,19.553,27.514,23.934,-6.618,-21.513,-15.864,-34.604
20.264,-9.131,45.199,-40.004,-39.725,37.897,39.018,54.411,-28.303,15.913,28.382,7.569,-16.498,-28.471,-12.908,-24.303
19.710,-11.862,32.380,-40.840,-40.463,40.377,39.034,53.942,-23.774,18.127,27.834,3.194,-9.327,-26.226,-6.124,-21.543
13.930,-6.632,25.651,-49.238,-38.295,35.676,35.459,50.907,-21.779,20.805,22.081,-0.557,-7.162,-27.493,-0.975,-24.686
9.933,-18.095,35.104,-48.197,-42.759,40.631,35.375,53.605,-15.414,20.705,19.444,5.149,-4.363,-35.359,-2.775,-17.691
14.050,-15.313,37.513,-55.424,-30.027,34.777,30.096,48.875,-21.955,28.460,19.860,10.045,-12.213,-28.387,-1.935,-17.854
11.338,-4.648,30.313,-65.950,-36.474,36.161,28.777,43.376,-24.410,29.122,16.464,8.745,-16.293,-30.115,4.311,-20.645
19.776,-9.076,24.837,-58.462,-30.462,31.106,28.181,36.492,-21.162,40.258,15.346,16.781,-12.713,-35.963,3.350,-30.174
13.457,-8.941,29.213,-51.855,-18.055,24.196,35.421,25.830,-18.753,40.114,18.896,10.693,-20.755,-39.747,9.030,-24.990
13.157,-8.750,35.080,-51.056,-12.703,16.775,32.688,32.228,-11.667,43.737,15.277,3.886,-19.915,-47.749,12.697,-19.982
6.893,-4.291,31.517,-57.654,-17.290,18.859,26.032,32.046,-15.121,41.277,20.305,6.069,-18.315,-44.873,6.239,-24.539
3.023,-3.293,22.731,-58.750,-4.349,15.487,21.292,35.049,-9.254,46.756,16.496,3.176,-28.767,-45.335,7.192,-17.303
-1.242,1.710,21.652,-56.137,-7.152,4.281,19.353,36.359,-15.953,44.536,14.829,15.068,-29.576,-47.567,5.797,-19.287
-2.642,2.318,11.219,-54.185,-0.870,4.648,13.903,27.231,-13.780,46.359,12.486,13.447,-27.471,-46.506,11.560,-21.900
-9.688,-5.454,17.171,-60.236,-7.560,7.733,12.316,20.515,-18.267,49.750,6.004,6.083,-34.143,-41.725,14.023,-16.326
-10.440,-8.879,11.615,-59.214,2.205,-2.230,12.766,17.938,-13.659,47.416,7.012,-1.751,-34.287,-39.208,17.577,-21.914
-14.037,2.900,22.393,-59.761,10.292,-7.671,6.987,15.735,-11.619,55.401,-2.712,-0.209,-32.683,-36.973,18.151,-20.546
-15.616,4.523,16.819,-59.721,11.870,-10.660,2.702,11.467,-12.628,52.133,-5.384,-1.226,-32.223,-44.123,20.648,-21.205
-14.756,8.607,16.528,-53.303,4.344,-5.167,2.282,6.911,-6.208,59.607,1.438,-7.655,-40.132,-55.402,24.784,-23.367
-15.498,1.055,19.105,-56.654,5.860,-9.251,-1.300,12.546,-8.128,49.984,-6.626,-14.863,-33.435,-48.167,28.788,-25.272
-23.018,0.453,18.103,-52.907,9.403,-8.554,-4.615,9.601,-8.034,49.894,-9.999,-9.029,-28.919,-51.173,27.980,-18.791
-24.499,-5.412,17.610,-56.884,10.640,-16.889,3.495,9.816,0.664,45.603,-17.497,-16.185,-37.534,-53.195,32.688,-16.024
-23.137,11.143,12.198,-53.892,13.514,-20.793,5.468,11.714,2.554,54.102,-24.650,-16.037,-45.761,-53.569,35.897,-16.076
-27.990,10.876,8.915,-52.523,14.024,-23.929,-0.481,-1.372,2.467,54.041,-14.862,-19.499,-42.525,-55.656,31.084,-12.145
-29.461,5.290,12.977,-46.895,14.886,-29.634,-4.938,-7.112,-0.564,54.834,-18.162,-17.098,-43.901,-48.610,32.545,-11.377
-34.335,4.442,12.285,-47.251,15.728,-29.562,-7.654,-5.420,-0.463,49.401,-15.818,-15.293,-39.163,-35.009,31.433,-15.371
-30.956,9.675,3.432,-47.151,21.286,-30.960,-7.614,-2.345,7.228,46.239,-11.660,-22.070,-44.537,-49.685,32.959,-15.303
-41.235,13.933,12.374,-51.594,25.267,-26.074,-11.893,-2.120,-2.335,47.051,-15.201,-16.612,-43.294,-45.035,33.937,-16.011
-41.099,9.981,8.537,-47.211,29.503,-35.032,-5.537,-16.489,-9.478,43.413,-17.478,-20.770,-41.648,-34.435,28.364,-13.639
-34.632,13.165,-1.463,-43.542,25.195,-37.341,-15.170,-25.627,-2.077,45.327,-19.549,-22.554,-37.256,-41.549,27.956,-20.369
-35.636,14.981,7.220,-34.734,22.689,-32.595,-16.232,-24.827,1.044,37.052,-20.789,-15.642,-40.712,-47.443,29.995,-17.027
-33.136,13.642,16.474,-27.525,22.953,-36.067,-14.418,-18.884,-2.875,33.472,-18.144,-14.188,-37.619,-35.750,38.550,-8.311
-39.436,10.830,11.506,-24.244,31.834,-40.123,-22.109,-22.258,2.512,37.848,-19.908,-12.750,-36.764,-33.550,38.698,-11.948
-45.920,8.809,11.405,-31.727,28.938,-33.042,-21.980,-26.593,1.449,36.845,-22.958,-20.799,-36.753,-32.791,44.543,-12.763
-45.153,15.487,14.453,-31.146,29.307,-35.785,-27.902,-28.686,6.685,23.135,-23.332,-22.162,-34.228,-35.667,41.439,-11.535
-48.241,15.155,7.316,-24.143,37.905,-42.758,-16.222,-36.374,11.040,22.109,-26.362,-24.142,-33.913,-36.917,37.161,-14.799
-55.385,21.261,7.360,-18.958,44.201,-48.899,-20.680,-34.832,3.332,28.227,-29.572,-22.239,-40.240,-30.912,37.917,-9.171
-62.640,18.208,17.631,-27.193,48.098,-46.570,-20.338,-31.319,19.429,20.308,-31.537,-26.983,-44.064,-37.763,44.011,-8.890
-61.795,20.025,15.875,-22.038,50.281,-45.281,-21.783,-29.956,18.519,17.633,-29.437,-21.107,-39.894,-34.852,45.058,0.654
-57.261,23.417,8.426,-15.645,46.524,-45.643,-18.094,-41.473,25.221,21.269,-33.408,-29.266,-36.551,-31.237,34.437,4.349
-63.400,17.715,4.382,-11.594,42.981,-40.332,-25.020,-48.108,27.184,24.472,-32.602,-27.063,-31.824,-25.988,33.438,6.908
-56.678,14.873,-4.143,-12.348,45.008,-53.608,-19.998,-43.954,29.344,26.290,-26.412,-29.919,-29.810,-18.821,32.997,5.486
-50.352,23.294,0.166,-3.372,35.603,-47.707,-21.763,-40.599,27.125,29.558,-27.905,-25.894,-26.334,-18.935,24.434,7.134
-51.804,34.904,4.984,-3.026,31.640,-49.532,-30.201,-45.819,33.919,24.053,-26.966,-29.582,-17.755,-9.552,17.857,12.797
-41.033,37.124,-6.958,0.785,38.149,-47.132,-26.464,-51.285,43.250,19.851,-24.887,-34.641,-25.431,-4.434,21.366,8.859
-42.372,37.626,-5.340,7.306,41.428,-40.422,-28.134,-46.494,34.533,17.432,-28.865,-35.163,-20.939,-15.308,20.940,8.193
-41.744,33.322,-2.526,15.744,39.711,-46.703,-22.754,-50.699,30.026,12.039,-25.987,-32.990,-20.246,-5.553,23.340,12.991
-28.776,31.287,0.548,12.459,44.116,-49.436,-26.653,-52.854,33.345,9.277,-28.898,-34.618,-13.084,-3.625,20.984,8.703
-32.061,34.203,-13.482,11.717,38.859,-53.516,-22.082,-54.822,26.116,10.102,-35.938,-27.767,-13.612,3.240,18.436,9.825
-37.573,40.468,-20.852,22.343,42.224,-55.214,-17.408,-49.932,41.950,0.001,-31.333,-35.476,-17.247,5.221,15.258,9.361
-39.327,39.637,-18.519,26.177,40.248,-56.419,-16.692,-44.045,52.072,0.130,-30.409,-31.241,-13.934,6.730,11.545,4.359
-34.917,40.270,-11.901,17.372,40.791,-47.510,-29.070,-46.735,43.079,1.087,-16.218,-31.887,-10.154,9.605,12.053,7.619
-34.449,40.350,-11.522,23.423,33.777,-40.497,-24.611,-56.048,36.620,2.508,-22.492,-32.242,-10.221,11.517,13.438,12.794
-35.322,37.239,-12.081,18.955,25.793,-38.721,-23.435,-52.070,49.641,3.787,-22.005,-30.287,-9.159,17.843,8.412,8.591
-30.533,38.359,-15.196,27.097,28.291,-41.015,-21.432,-51.780,52.356,-6.194,-23.969,-33.277,-2.853,12.096,7.202,11.772
-26.376,37.114,-13.286,30.518,26.040,-34.478,-14.170,-39.509,45.635,-8.336,-20.968,-30.827,1.300,21.060,5.158,13.826
-22.586,34.666,-21.877,34.846,18.159,-37.584,-18.989,-41.274,46.752,-16.264,-22.570,-33.020,1.858,12.703,10.041,12.229
-23.081,36.848,-27.114,45.222,13.030,-30.610,-17.072,-40.044,57.133,-14.616,-28.043,-38.751,2.401,15.804,3.714,9.785
-26.325,43.070,-29.970,42.077,14.050,-25.246,-23.037,-33.562,50.981,-16.361,-27.301,-33.864,5.105,17.410,-2.710,20.955
-18.881,27.199,-28.732,51.357,21.405,-20.193,-23.114,-40.718,48.232,-16.810,-32.339,-33.675,10.069,23.116,0.132,19.110
-13.271,28.958,-25.416,49.228,11.074,-18.244,-23.071,-34.915,48.974,-15.791,-28.742,-34.128,15.238,22.296,0.365,17.580
-10.215,26.361,-27.513,42.442,17.707,-23.530,-21.469,-27.194,48.694,-18.815,-24.502,-31.778,18.129,18.045,-1.111,25.440
-11.469,31.813,-31.073,47.904,19.224,-25.120,-27.930,-26.816,43.442,-22.442,-24.387,-28.006,22.696,21.216,-9.305,21.174
-12.323,30.685,-33.673,48.237,10.962,-10.668,-22.354,-30.718,44.047,-17.687,-26.933,-30.678,21.646,17.082,-7.467,20.325
-9.372,30.402,-35.583,39.530,8.558,-14.782,-26.516,-16.519,34.042,-18.492,-29.349,-28.409,24.436,21.574,-4.180,22.868
-1.932,28.300,-35.030,41.212,7.861,-23.429,-25.985,-18.787,35.864,-24.692,-22.201,-26.718,20.797,18.262,-12.156,24.848
-0.069,22.215,-42.436,38.732,-0.192,-16.726,-32.445,-20.788,37.221,-22.918,-25.892,-31.938,19.310,21.486,-11.074,27.949
3.396,14.240,-45.254,43.775,4.730,-26.580,-25.741,-26.504,30.420,-12.503,-32.594,-25.246,22.677,35.028,-13.908,26.142
3.625,14.479,-46.790,54.057,4.182,-17.546,-25.776,-11.499,32.088,-22.905,-29.945,-21.107,29.151,22.018,-18.539,29.900
13.295,13.536,-47.295,51.453,7.266,-14.920,-19.950,-10.381,47.506,-25.850,-31.781,-17.965,27.287,24.013,-21.779,28.328
17.673,9.880,-51.460,51.553,9.405,-7.557,-23.499,-9.428,36.763,-22.549,-29.239,-15.823,26.118,21.222,-21.389,34.578
22.928,12.313,-50.503,43.632,0.129,0.332,-23.747,-3.539,35.252,-22.401,-26.819,-24.183,32.417,22.908,-22.429,40.807
24.708,10.790,-45.636,43.486,5.575,-9.556,-25.108,6.710,39.774,-27.463,-25.488,-19.651,34.031,31.007,-19.017,34.055
25.303,4.602,-53.715,46.075,4.877,-4.141,-19.227,9.656,32.491,-27.979,-25.513,-22.809,35.661,22.771,-24.655,45.184
28.062,0.172,-47.473,40.654,-3.311,0.197,-17.369,12.725,45.562,-22.183,-20.910,-11.787,32.550,29.327,-20.770,44.685
36.212,1.080,-48.548,41.413,-1.084,1.850,-18.504,15.237,40.113,-19.440,-25.011,-11.775,39.567,31.987,-26.357,38.458
40.934,-4.509,-47.304,39.277,0.691,2.782,-17.770,8.151,33.354,-26.388,-30.772,-13.639,38.440,31.498,-23.537,36.723
36.800,-7.801,-49.089,32.497,-0.710,5.761,-16.118,8.051,32.048,-26.578,-24.914,-9.476,35.256,26.679,-20.295,28.371
40.995,-13.599,-49.843,30.154,1.260,-3.766,-14.979,10.446,35.288,-16.152,-16.938,0.335,35.496,25.345,-21.889,28.623
34.880,-11.364,-57.991,34.583,-4.791,0.686,-7.362,13.192,21.777,-13.257,-25.035,0.613,34.512,21.041,-26.711,31.321
40.655,-20.270,-57.003,42.808,-6.986,4.928,-12.931,18.056,22.553,-21.047,-23.716,1.786,38.606,24.117,-22.763,32.852
38.112,-24.516,-55.879,44.136,-8.491,5.634,-12.000,19.646,22.924,-23.999,-19.103,-0.828,38.791,22.085,-25.753,27.553
42.482,-28.089,-51.409,40.317,-16.823,2.993,-15.293,35.593,15.710,-19.367,-19.771,1.760,31.550,29.363,-32.796,28.873
45.870,-25.539,-47.190,36.278,-18.198,-9.452,-8.054,27.551,7.446,-17.764,-21.923,4.464,28.945,21.120,-28.666,32.953
40.369,-31.024,-44.065,40.190,-22.569,-1.613,-13.460,31.955,8.071,-18.883,-22.131,4.829,31.449,15.539,-33.274,34.991
40.854,-29.016,-52.417,30.027,-18.010,2.550,-9.745,43.990,14.255,-18.651,-21.942,4.515,33.701,21.036,-31.985,36.778
41.722,-33.978,-50.461,28.268,-21.686,6.836,-2.505,44.683,5.475,-21.802,-15.670,19.329,28.834,22.163,-29.404,39.909
35.177,-33.797,-41.226,26.076,-20.982,9.146,2.631,47.843,2.730,-19.001,-14.826,18.909,33.824,27.073,-26.701,38.548
33.864,-25.886,-42.068,16.820,-14.888,14.119,3.472,51.147,10.791,-11.974,-17.442,23.351,28.762,15.577,-25.629,39.738
35.962,-27.675,-34.109,18.337,-9.507,17.809,4.490,62.939,0.193,-13.761,-17.819,21.125,29.180,19.136,-21.244,41.119
38.661,-29.301,-31.304,20.635,-9.254,17.684,-0.015,57.871,-2.231,-19.052,-17.610,25.885,18.065,18.077,-21.342,46.386
37.397,-38.454,-29.404,3.549,-11.210,18.820,-1.276,53.653,3.293,-16.733,-9.511,30.986,17.371,13.348,-24.677,38.964
42.825,-40.837,-39.470,6.745,-15.526,24.067,1.198,56.822,-3.519,-17.015,-15.603,37.002,15.905,15.552,-28.048,43.388
37.783,-41.817,-31.241,-0.754,-13.168,20.935,6.745,52.721,-5.878,-11.605,-8.282,42.643,20.904,17.052,-33.667,43.600
32.299,-45.728,-30.216,-8.648,-17.994,16.098,7.273,57.317,-8.812,-10.871,-2.002,46.752,24.620,12.036,-25.827,34.298
31.102,-51.777,-27.546,-2.696,-27.339,24.006,19.473,57.928,-11.760,-9.561,-4.851,37.738,18.951,13.783,-22.525,33.072
34.656,-43.786,-18.634,-10.791,-25.443,26.524,17.352,52.580,-10.201,-6.194,-2.711,44.803,15.986,10.701,-31.689,34.490
37.531,-46.177,-17.198,-11.199,-19.280,28.168,10.363,50.133,-20.794,-7.987,-5.658,43.125,17.632,8.272,-23.582,35.893
33.987,-51.210,-9.320,-15.907,-21.634,27.852,15.100,59.876,-27.668,-9.592,4.043,40.391,16.031,12.764,-25.596,31.025
44.242,-47.234,-2.173,-9.937,-17.654,27.152,14.495,60.564,-22.660,-10.063,3.505,45.054,19.776,-1.981,-28.905,32.964
43.135,-43.938,2.864,-8.000,-14.165,32.784,9.801,50.944,-30.463,-12.240,-2.418,51.371,17.260,-0.445,-26.127,33.135
40.259,-44.983,0.252,-14.388,-11.663,35.098,14.625,54.508,-25.095,-12.953,1.384,50.763,11.933,0.768,-25.926,29.227
32.613,-42.510,6.646,-2.289,-12.453,32.530,23.245,60.811,-28.949,-10.280,2.700,51.218,7.569,-1.649,-28.312,24.724
29.056,-48.168,-3.506,-10.372,-7.082,30.075,24.185,66.291,-39.778,-15.207,6.461,48.499,2.862,-5.706,-25.667,13.035
27.601,-55.996,3.752,-8.905,-13.746,20.386,22.718,51.496,-30.477,-14.758,17.424,50.129,-1.452,3.334,-28.049,18.434
23.141,-50.129,11.668,-8.409,-11.032,23.924,27.064,53.200,-30.063,-12.638,14.702,55.462,-7.610,6.693,-24.962,17.726
19.740,-57.393,16.456,-5.814,-12.944,27.547,32.258,49.507,-25.289,-7.455,11.663,53.709,-8.374,4.810,-19.643,21.610
26.412,-50.606,17.148,-6.951,-16.235,26.251,33.840,42.537,-34.369,-7.732,18.652,49.873,-5.946,3.121,-20.415,25.759
22.178,-45.346,15.102,-4.689,-19.193,23.540,32.019,45.981,-41.980,-9.837,21.388,45.048,-1.979,0.693,-18.162,16.616
18.956,-40.788,22.431,-11.237,-12.008,22.881,39.375,47.433,-42.156,-3.435,20.247,40.654,-2.264,1.993,-12.612,12.889
18.162,-35.840,21.445,-19.019,-14.006,26.448,34.270,49.435,-35.870,-6.530,28.186,46.862,-3.568,-3.590,-15.400,13.721
19.782,-35.067,19.665,-19.277,-16.614,21.952,35.504,41.756,-44.781,3.389,26.234,47.828,-8.647,-0.511,-12.281,7.969
18.325,-41.107,28.607,-11.964,-19.458,26.285,42.557,43.016,-49.843,0.790,31.698,46.898,-13.136,-5.520,-12.889,2.747
21.597,-34.631,40.324,-19.173,-14.987,31.905,41.581,39.829,-45.628,-0.104,27.062,53.343,-13.336,-0.578,-11.276,8.017
18.573,-37.927,47.548,-23.206,-12.597,24.202,52.267,35.617,-40.006,-1.678,31.071,45.297,-18.088,-7.781,-13.518,2.185
20.320,-34.155,43.168,-23.789,-9.714,29.460,46.998,38.899,-49.764,1.439,29.163,48.664,-19.217,-4.256,-13.187,-5.009
20.148,-33.452,39.385,-19.286,-15.441,22.127,53.496,41.598,-40.771,-1.944,35.129,43.348,-18.802,-10.289,-9.234,-10.540
11.681,-33.445,37.679,-18.710,-5.956,28.859,46.856,41.666,-37.789,-3.168,34.225,47.265,-21.335,-0.547,-9.974,-6.202
6.522,-37.364,42.569,-24.583,-6.766,35.704,47.343,37.600,-41.479,-4.248,30.559,42.826,-32.710,1.117,-14.577,-10.503
5.230,-32.591,46.334,-23.330,-7.306,32.357,50.272,44.474,-39.105,-3.430,34.027,35.821,-30.568,-13.853,-12.319,-5.059
-0.408,-29.414,54.011,-27.589,-8.362,37.250,52.085,43.534,-43.012,3.245,37.599,27.767,-27.436,-12.568,-10.414,-8.159
3.532,-31.540,47.587,-27.372,-9.118,38.447,51.644,36.828,-30.679,2.051,36.808,33.515,-29.801,-8.212,-9.400,-17.986
8.204,-31.335,57.986,-24.988,-13.914,35.192,50.545,33.686,-32.415,-5.505,43.305,25.239,-29.902,-3.829,-8.075,-23.627
9.264,-15.958,54.102,-29.219,-14.841,38.167,56.061,41.671,-35.575,2.471,43.140,21.883,-29.535,-14.008,-15.004,-18.449
9.902,-18.480,51.891,-21.892,-16.886,32.826,54.355,34.931,-28.305,3.643,49.823,24.582,-33.347,-19.521,-3.667,-21.796
2.848,-14.119,49.277,-26.760,-14.811,39.981,55.911,37.056,-28.345,5.989,45.559,16.425,-32.196,-17.884,-4.849,-18.751
-1.878,-4.920,41.703,-29.347,-16.736,41.769,53.031,36.045,-29.189,8.929,41.503,12.932,-31.911,-17.476,-5.354,-14.688
-1.081,-2.671,41.946,-27.561,-14.013,42.735,42.948,34.024,-26.513,7.686,40.101,10.400,-34.416,-17.438,-4.693,-22.029
-0.848,-6.003,58.259,-40.210,-19.207,34.494,49.807,40.212,-33.073,13.405,48.313,9.742,-40.249,-24.065,-5.496,-19.596
6.284,-7.497,49.882,-40.709,-12.340,42.595,42.436,40.216,-28.296,12.583,53.980,9.659,-44.581,-26.703,-1.929,-29.637
6.424,-3.874,50.992,-32.549,-15.781,36.449,41.862,32.003,-18.919,0.935,47.261,-7.843,-46.047,-32.976,-1.508,-31.682
2.036,4.379,42.302,-32.003,-22.121,38.587,43.691,30.374,-14.571,4.092,43.901,2.007,-42.753,-28.696,4.981,-27.643
1.057,7.125,50.094,-43.893,-27.072,41.062,45.197,24.495,-21.900,3.048,44.931,-1.893,-39.839,-33.949,2.388,-26.472
-0.939,10.363,46.056,-36.471,-22.326,32.856,38.860,17.507,-15.103,10.861,41.460,-2.013,-39.565,-25.686,4.864,-31.768
5.250,12.934,50.407,-35.991,-19.995,35.397,39.325,14.830,-23.476,11.422,45.208,4.150,-42.220,-25.838,6.512,-36.199
5.644,17.059,49.736,-38.086,-20.802,38.456,39.810,23.414,-6.711,20.291,40.800,10.271,-35.709,-29.912,5.781,-35.888
2.970,17.342,42.729,-43.678,-9.813,37.087,37.653,25.623,-4.500,26.426,36.086,-4.139,-40.731,-26.740,5.141,-46.466
3.361,24.130,52.374,-41.361,-17.524,35.925,46.659,14.177,-8.688,21.714,30.200,-6.934,-37.188,-23.623,3.719,-42.590
8.277,19.752,51.228,-38.370,-10.923,32.294,34.602,15.570,-4.841,24.591,23.304,-9.123,-37.481,-29.555,11.376,-30.671
3.555,22.332,39.833,-34.299,-7.479,23.936,27.961,14.605,1.076,21.728,25.392,-15.697,-30.296,-21.909,4.984,-32.326
4.173,27.836,39.252,-43.188,-15.902,23.364,23.983,2.588,3.504,28.187,27.068,-6.613,-30.699,-30.592,6.781,-37.558
-1.694,35.624,37.135,-50.444,-11.146,29.115,23.269,8.477,4.693,29.379,23.165,-17.883,-30.235,-31.310,8.233,-38.131
-10.013,34.012,39.995,-37.082,-12.668,22.203,15.728,6.113,8.207,32.502,23.122,-13.394,-30.335,-28.807,11.364,-33.690
-1.639,37.193,28.856,-31.906,-11.085,26.547,13.985,8.579,13.665,37.960,16.459,-11.992,-28.555,-25.623,2.869,-28.095
-8.060,38.470,29.319,-22.414,-8.547,24.051,11.512,1.804,13.718,38.722,15.556,-8.492,-33.720,-29.142,3.671,-41.624
-7.595,39.828,28.120,-31.733,-1.271,23.995,10.653,6.004,14.089,44.087,22.532,-13.510,-29.318,-41.718,6.251,-33.955
-9.970,34.144,27.731,-29.999,-6.034,14.829,14.232,4.201,13.712,46.466,12.300,-16.749,-27.220,-46.387,6.100,-36.925
-8.845,36.050,23.567,-39.250,-11.325,13.822,0.412,1.065,22.038,44.647,8.054,-20.223,-31.268,-48.955,10.683,-36.503
-12.762,34.602,27.765,-40.026,-4.322,9.831,3.486,7.368,20.672,44.857,8.744,-17.215,-26.948,-52.003,13.714,-31.164
-12.031,43.819,27.863,-39.646,1.752,11.675,0.254,5.052,19.686,50.305,4.504,-15.295,-28.924,-42.504,15.994,-28.446
-9.695,43.302,25.652,-32.147,0.392,15.026,-0.854,3.895,22.775,56.501,1.914,-19.551,-33.679,-49.572,10.582,-30.186
-9.488,47.416,16.047,-34.258,2.778,13.988,0.885,4.723,23.148,51.191,5.386,-21.227,-27.654,-59.699,16.506,-30.993
-13.533,60.022,16.223,-48.722,0.576,8.804,-4.758,-0.481,20.250,57.220,3.723,-21.263,-27.039,-52.225,19.080,-30.317
-15.261,50.406,6.349,-47.878,9.539,3.550,-4.014,-8.423,27.730,54.946,2.644,-26.502,-24.941,-53.308,25.934,-31.872
-17.076,47.335,5.761,-48.280,15.581,4.305,-16.590,-3.515,28.457,51.449,-2.018,-31.491,-33.365,-55.748,26.178,-27.831
-27.382,44.213,0.667,-48.090,16.819,4.581,-10.933,-7.159,34.692,48.981,-4.733,-30.178,-35.384,-55.492,33.853,-25.021
-23.446,37.391,0.143,-45.178,18.738,-1.254,-11.284,-16.170,31.575,53.269,-7.632,-23.003,-32.581,-51.124,26.277,-24.278
-29.336,39.686,-1.385,-39.120,21.380,-1.227,-10.022,-5.490,34.326,50.780,-5.196,-25.070,-29.054,-60.609,30.538,-24.038
-30.755,35.350,-7.037,-38.685,15.837,-7.015,-12.511,-0.256,31.418,46.592,-8.530,-23.937,-35.195,-42.147,32.747,-17.549
-27.791,34.070,-5.966,-37.443,23.982,-4.076,-16.058,-7.603,33.966,49.656,-6.365,-31.975,-27.769,-45.109,32.533,-22.888
-22.664,30.927,-4.315,-30.805,19.378,-17.754,-24.246,-6.443,24.533,45.662,-8.528,-34.324,-22.185,-44.931,34.150,-28.117
-31.640,32.521,-5.050,-27.926,20.601,-18.938,-28.840,-2.224,32.169,40.712,-8.660,-30.313,-28.030,-46.523,32.968,-22.310
-24.860,38.321,0.265,-30.430,25.635,-23.961,-29.029,-7.311,32.168,38.858,-15.656,-31.305,-27.344,-47.345,33.031,-20.438
-26.453,34.442,-18.259,-27.076,25.486,-20.732,-28.949,-2.586,30.589,36.308,-22.128,-42.916,-25.499,-47.789,37.944,-15.216
-26.641,31.743,-19.867,-32.264,21.541,-16.095,-27.495,-7.135,40.714,35.331,-25.367,-37.189,-25.351,-45.155,31.349,-11.459
-21.533,33.028,-25.861,-31.652,26.326,-18.936,-29.416,0.496,34.432,40.229,-26.765,-27.489,-26.710,-54.377,37.986,-8.624
-27.444,32.516,-11.515,-26.639,37.378,-30.844,-34.709,-14.419,43.205,40.368,-20.005,-22.857,-18.514,-40.145,38.625,-3.998
-31.300,34.543,-8.924,-27.326,35.255,-30.981,-38.299,-22.053,41.806,43.230,-25.584,-19.644,-20.196,-43.669,28.248,-3.917
-30.253,34.799,-14.620,-24.791,31.899,-33.428,-39.033,-29.380,40.147,38.159,-21.796,-19.540,-15.536,-43.996,30.628,-2.280
-32.758,34.477,-18.702,-18.051,33.284,-37.822,-41.110,-27.454,38.500,34.716,-20.385,-18.886,-15.619,-45.881,35.653,1.368
-33.266,34.033,-20.733,-16.279,33.670,-40.161,-35.576,-25.238,41.263,30.150,-30.235,-17.149,-14.831,-43.304,33.398,5.315
-32.376,38.301,-18.865,-21.550,36.371,-36.737,-40.637,-19.483,32.965,30.490,-31.720,-20.266,-12.782,-45.155,30.429,10.310
-31.061,38.073,-22.032,-12.605,38.045,-37.635,-45.843,-27.957,29.180,27.593,-27.135,-27.823,-17.388,-37.237,31.005,11.697
-30.578,40.663,-25.836,-7.589,36.733,-32.503,-41.612,-24.802,30.640,29.995,-34.886,-26.004,-15.777,-37.865,30.195,7.644
-38.780,40.595,-23.843,-12.464,42.663,-39.326,-50.992,-28.876,30.543,33.375,-35.520,-26.596,-16.752,-38.685,28.745,5.828
-36.954,32.905,-25.843,-16.335,37.638,-40.303,-46.382,-29.020,32.767,26.879,-35.797,-29.575,-22.434,-31.841,32.918,13.054
-40.422,26.723,-25.601,-8.716,31.031,-37.713,-48.337,-34.027,34.234,23.285,-32.727,-36.206,-23.348,-27.713,36.142,17.329
-32.237,25.973,-19.518,-1.855,38.022,-41.929,-45.850,-41.703,38.511,17.500,-35.119,-33.144,-11.348,-31.150,31.005,13.210
-28.611,18.494,-27.663,0.061,32.118,-40.615,-43.825,-30.230,41.588,15.129,-32.256,-27.445,-7.156,-19.584,32.543,16.268
-26.063,23.257,-28.439,1.870,20.166,-48.260,-41.891,-31.026,38.868,17.697,-26.896,-21.747,-12.659,-20.269,21.690,9.148
-30.747,30.498,-25.641,13.971,21.669,-55.738,-40.455,-27.708,44.300,13.157,-31.633,-21.098,-18.151,-12.063,26.604,13.218
-27.234,24.093,-31.349,12.843,17.944,-48.991,-38.838,-29.540,44.236,19.836,-30.518,-20.257,-21.063,-5.960,26.865,12.010
-29.559,20.975,-30.641,23.495,26.336,-56.402,-33.710,-28.906,44.868,20.083,-27.041,-22.466,-6.210,-2.461,23.860,17.124
-28.372,20.772,-20.970,18.873,19.107,-50.928,-28.374,-34.606,35.193,18.494,-31.076,-20.956,-9.115,-9.577,23.323,22.269
-23.361,17.358,-29.738,17.105,23.602,-56.753,-33.868,-31.450,38.337,14.034,-28.459,-24.731,-7.765,-8.212,28.544,15.982
-27.339,11.048,-22.841,28.183,21.151,-51.696,-37.585,-37.389,35.332,14.265,-30.046,-18.327,-3.976,-6.058,23.224,10.878
-26.374,17.349,-21.296,24.969,24.576,-54.823,-42.169,-33.894,33.299,8.436,-41.633,-23.364,-5.197,-9.311,21.801,14.626
-23.608,16.147,-24.961,29.122,25.869,-57.659,-29.953,-37.011,38.433,12.378,-37.624,-24.346,-12.541,6.208,20.985,12.699
-21.238,18.465,-35.378,34.746,23.071,-45.605,-28.776,-40.059,32.858,1.764,-38.444,-24.028,-7.569,9.331,17.022,13.202
-23.657,16.759,-35.959,37.209,26.107,-44.296,-30.277,-46.220,36.179,-1.516,-34.458,-24.496,-5.337,12.245,13.798,16.874
-21.869,15.912,-36.557,28.928,21.788,-42.487,-33.646,-39.282,40.910,-2.231,-35.469,-23.995,3.888,12.314,10.352,14.822
-17.312,18.371,-38.859,32.909,19.570,-46.966,-19.368,-36.515,31.504,-4.343,-29.129,-23.684,2.952,17.179,6.399,12.795
-21.342,6.583,-26.998,33.029,18.890,-45.508,-25.215,-33.760,35.573,-5.864,-32.244,-19.369,14.946,24.418,3.044,5.767
-23.580,15.279,-18.067,38.799,14.185,-40.527,-19.012,-42.338,36.269,-13.628,-26.949,-20.702,10.212,26.733,7.182,16.936
-23.536,16.330,-29.857,31.248,18.652,-41.196,-23.561,-38.484,36.024,-18.769,-24.149,-15.217,15.126,31.441,2.671,12.996
-25.454,13.533,-28.787,37.681,16.712,-43.246,-16.014,-30.855,33.841,-22.476,-17.407,-26.480,10.781,25.982,-1.633,7.775
-20.034,11.613,-36.003,40.910,12.750,-44.440,-11.719,-37.427,30.582,-20.840,-18.732,-20.999,15.438,33.318,-9.928,17.925
-14.523,13.037,-41.132,45.439,15.646,-32.447,-13.218,-28.172,21.804,-23.180,-16.439,-13.772,18.397,36.878,-9.775,17.147
-15.834,6.980,-39.889,35.908,8.002,-26.700,-6.324,-17.557,29.040,-19.643,-15.531,-8.148,21.675,40.774,-11.950,17.531
-18.748,3.220,-35.564,41.810,-0.783,-25.216,-2.971,-32.886,25.816,-21.115,-20.585,-8.001,21.549,37.236,-10.997,11.969
-9.436,6.415,-34.528,45.230,-0.834,-20.284,-0.908,-24.728,27.742,-27.801,-23.574,-9.574,16.015,44.689,-12.142,6.490
-13.496,6.165,-27.196,51.210,6.901,-25.976,-6.389,-15.942,30.303,-32.029,-18.102,-7.924,16.356,40.937,-9.078,17.944
-8.048,-0.779,-25.742,45.939,2.148,-24.292,2.126,-18.570,25.641,-33.898,-16.506,-13.460,15.958,49.284,-20.502,12.466
0.843,5.803,-31.453,42.758,1.266,-21.623,-0.566,-17.207,22.298,-32.796,-16.354,-4.944,22.563,50.366,-20.667,16.684
-6.803,4.878,-32.151,47.321,-2.417,-11.505,0.563,-13.157,21.964,-18.268,-13.812,-4.598,24.363,54.125,-24.528,19.597
-11.211,-0.241,-29.568,42.059,-3.448,-7.524,-6.459,-21.519,25.157,-26.895,-19.667,-0.334,23.914,52.009,-29.220,18.636
-6.464,1.614,-31.336,50.330,-2.908,-10.003,0.205,-6.161,25.313,-27.170,-16.432,1.189,26.251,54.919,-23.901,13.495
2.431,6.445,-34.444,43.773,-7.702,-11.737,7.931,5.706,24.544,-21.987,-12.086,2.513,29.910,47.919,-16.615,17.820
-0.216,2.190,-33.930,38.079,-8.968,-8.728,2.084,0.525,19.816,-30.726,-13.166,2.527,32.110,61.792,-25.554,16.299
4.386,-7.340,-34.217,31.791,-13.180,-3.257,7.141,1.518,21.215,-34.897,-13.222,3.136,29.645,59.368,-27.932,13.652
10.896,-4.019,-37.665,32.656,-10.366,6.350,13.408,7.533,20.565,-32.240,-16.807,5.017,29.465,63.095,-26.501,10.067
22.377,1.302,-40.303,39.484,-12.897,13.630,21.195,15.956,18.032,-25.591,-11.285,2.299,30.451,59.113,-34.608,10.899
20.825,-0.640,-25.755,37.139,-27.051,12.199,21.348,18.984,20.279,-26.251,-2.531,6.503,30.140,45.054,-37.593,13.571
25.800,-5.575,-24.232,43.972,-25.656,15.423,17.347,16.665,15.702,-30.362,-15.377,10.265,29.366,50.482,-33.085,19.269
28.410,-10.389,-17.394,45.927,-23.823,16.431,15.537,27.303,17.206,-29.291,-9.538,5.016,28.100,46.657,-34.775,18.883
22.361,-10.840,-14.506,38.428,-23.263,16.462,23.441,20.618,13.322,-30.506,-4.881,3.748,31.711,40.174,-33.087,21.294
25.103,-9.343,-18.062,34.071,-12.487,24.739,28.619,16.417,15.577,-22.275,-3.448,6.768,33.203,40.117,-34.162,14.844
28.353,-11.211,-19.989,25.667,-20.705,12.713,27.182,17.236,10.538,-15.799,1.102,6.325,31.535,44.040,-37.301,19.389
33.339,-17.072,-17.237,30.220,-20.896,29.176,35.426,28.727,15.023,-18.490,-1.776,19.812,29.781,38.054,-43.877,17.247
29.201,-6.006,-24.978,23.147,-24.498,36.286,34.295,33.734,10.715,-12.282,-9.230,16.358,31.373,34.262,-40.318,15.108
33.980,-18.026,-18.012,24.629,-22.157,32.909,30.920,40.494,4.096,-9.335,1.126,15.847,36.064,37.220,-43.700,24.191
27.553,-25.144,-23.320,19.154,-23.252,33.991,31.260,43.529,1.466,-4.534,-4.459,15.974,37.732,41.542,-43.041,24.689
29.829,-20.684,-20.623,18.792,-21.837,38.698,33.259,43.907,-4.107,-4.042,-6.258,26.804,39.274,37.726,-42.901,21.335
22.764,-22.897,-22.895,7.994,-25.252,32.594,37.297,46.151,-10.353,-11.269,-3.634,28.413,33.242,32.900,-41.260,19.311
30.197,-23.262,-25.754,1.370,-33.200,37.385,45.053,48.645,-13.542,-9.134,-2.006,27.329,31.421,24.728,-44.176,23.037
34.632,-26.997,-25.604,2.505,-36.442,37.027,39.285,46.481,-8.205,-4.849,3.017,21.036,27.339,19.916,-45.093,29.045
35.489,-25.050,-29.209,-5.887,-37.018,30.507,43.236,52.611,-12.432,-4.061,5.815,23.417,27.122,18.415,-45.267,27.711
35.382,-33.960,-16.192,-1.084,-41.084,30.286,39.620,47.318,-19.870,-7.822,2.467,28.204,36.747,14.368,-38.553,22.650
29.096,-26.852,-14.048,-8.362,-42.259,30.846,39.294,48.551,-26.078,-4.725,-5.552,36.376,33.173,16.800,-36.475,19.316
31.473,-23.685,-12.410,-16.346,-37.690,20.065,35.955,57.208,-27.364,-4.863,-1.175,35.361,26.394,6.697,-29.324,13.977
38.876,-29.210,-4.940,-7.280,-34.478,15.644,45.997,49.420,-31.661,-5.395,8.823,37.043,28.346,8.297,-36.829,22.617
32.868,-33.557,-5.586,-14.394,-36.755,27.682,49.879,59.396,-33.510,-7.634,8.757,35.655,28.305,9.976,-42.082,28.597
31.404,-37.962,2.376,-25.647,-35.408,25.091,48.875,68.445,-33.575,1.972,9.965,45.806,19.948,8.979,-33.302,25.169
31.446,-37.252,-1.398,-31.985,-42.818,28.171,43.209,57.206,-30.931,4.749,6.511,45.839,15.605,5.448,-29.532,18.876
32.648,-36.728,-0.653,-34.442,-42.280,28.848,44.256,60.235,-40.291,6.082,10.734,48.647,13.047,4.708,-30.089,12.721
32.646,-34.815,3.960,-41.120,-44.653,28.986,35.902,63.782,-44.359,11.536,11.396,48.624,9.708,-1.031,-31.477,11.897
34.001,-33.138,8.307,-36.421,-42.069,34.877,44.523,53.431,-43.212,5.312,10.218,45.754,11.461,7.041,-29.996,15.774
29.183,-37.252,15.388,-29.313,-32.712,26.382,40.331,55.805,-44.742,5.740,10.547,53.796,5.010,-1.756,-26.031,13.657
33.793,-37.739,7.733,-35.736,-34.711,23.569,49.021,56.148,-49.275,11.097,14.883,44.058,3.966,-2.974,-24.757,14.575
24.217,-34.026,13.224,-32.074,-44.009,28.850,49.636,63.658,-60.569,14.524,18.073,40.688,-2.831,-3.572,-23.180,11.563
23.831,-39.035,8.915,-35.987,-40.158,31.998,43.977,59.186,-55.502,11.016,22.479,40.175,-4.341,-2.204,-19.062,8.197
20.880,-40.820,16.429,-45.320,-40.661,32.251,32.267,54.617,-61.173,19.225,17.920,46.691,-4.681,-3.902,-18.333,2.783
13.850,-42.932,16.758,-50.023,-38.864,29.758,41.887,59.510,-57.811,19.393,20.530,48.866,-4.241,-5.568,-16.630,13.396
22.460,-41.691,17.009,-58.837,-36.761,34.372,41.390,57.310,-57.152,15.024,13.978,55.010,-7.266,-7.689,-12.702,3.854
21.089,-37.296,25.929,-60.445,-26.814,32.342,45.887,58.205,-62.309,13.792,15.334,55.268,-13.054,-14.567,-14.441,1.996
14.325,-40.795,30.412,-57.240,-24.599,32.942,46.787,50.440,-55.989,12.610,12.354,50.619,-16.794,-18.934,-15.170,-0.669
5.851,-39.708,25.693,-67.496,-32.833,35.885,42.499,45.177,-55.342,14.544,15.491,50.580,-19.220,-18.221,-9.720,-5.909
1.025,-41.689,32.723,-68.253,-35.158,30.526,41.676,41.553,-60.403,24.691,16.173,47.510,-18.273,-22.529,-11.124,-9.197
-1.018,-44.697,35.398,-66.408,-34.255,29.837,44.457,33.881,-59.849,23.678,15.679,44.883,-18.386,-23.750,-4.033,-12.271
-0.670,-37.581,34.630,-70.862,-32.171,22.840,46.098,37.532,-51.974,14.176,24.373,54.135,-26.295,-21.020,-10.417,-17.633
5.051,-33.810,37.797,-57.887,-27.623,21.674,46.060,36.123,-53.121,18.210,29.680,52.237,-30.146,-21.534,-5.671,-21.638
3.237,-29.935,46.159,-63.400,-30.155,17.956,51.734,34.160,-55.743,21.059,28.158,50.016,-27.050,-17.645,5.752,-18.424
-3.363,-28.356,40.837,-63.531,-25.790,15.706,40.998,33.110,-57.420,20.268,28.628,44.987,-29.092,-20.972,0.760,-15.402
-1.685,-33.506,36.753,-54.593,-30.105,11.407,47.646,30.647,-54.387,21.829,31.235,43.744,-30.685,-21.669,5.453,-18.095
-0.150,-32.476,41.895,-47.314,-23.683,12.943,58.453,32.812,-57.731,18.338,25.017,49.008,-38.232,-30.231,6.172,-22.587
-1.839,-34.992,48.442,-61.383,-21.561,16.261,49.019,23.278,-50.240,18.457,24.170,58.175,-37.795,-19.162,8.632,-23.441
-0.662,-30.671,54.815,-62.255,-17.702,11.471,45.313,25.444,-52.261,17.161,27.046,48.262,-37.022,-23.819,8.988,-19.477
-4.216,-25.445,48.726,-58.194,-9.394,18.789,46.406,20.696,-46.097,22.497,35.028,41.284,-48.456,-26.646,10.470,-25.816
-13.469,-22.062,51.679,-46.134,-14.494,13.390,41.657,18.160,-42.856,28.289,40.843,35.557,-46.910,-29.082,11.349,-25.026
-17.300,-14.083,51.913,-51.670,-8.958,18.492,37.214,14.123,-41.602,30.220,34.485,29.145,-46.412,-23.911,17.483,-22.528
-20.355,-16.513,48.976,-54.841,-3.701,16.732,38.882,11.098,-40.443,24.115,26.803,25.669,-39.823,-19.654,8.063,-25.138
-20.893,-15.776,49.504,-44.991,-2.674,12.206,35.835,12.870,-35.304,27.928,29.091,28.085,-50.175,-21.544,8.480,-22.446
-21.113,-19.458,56.522,-46.276,0.996,10.819,32.857,18.281,-29.135,24.659,27.809,19.342,-50.394,-30.129,15.347,-25.362
-27.049,-13.858,59.786,-42.846,4.410,8.225,33.627,10.096,-29.599,27.761,36.892,21.890,-45.712,-27.183,10.352,-26.052
-29.968,-13.258,52.582,-35.517,-5.146,4.805,38.182,17.661,-32.949,28.646,33.283,17.808,-45.188,-30.512,11.256,-34.956
-32.631,-7.228,56.437,-48.562,-12.225,6.462,37.750,13.067,-19.352,22.154,30.598,4.097,-42.163,-31.615,9.533,-29.768
-34.982,2.556,46.087,-47.759,-10.386,13.127,37.326,7.376,-23.392,19.995,31.770,5.347,-39.884,-35.058,12.136,-36.773
-32.536,-2.332,49.890,-41.082,-11.533,10.163,32.842,10.303,-20.726,22.602,28.752,-1.573,-46.914,-39.499,11.621,-39.874
-41.062,5.112,44.221,-42.313,-8.145,-2.699,40.339,3.928,-9.119,28.367,32.934,-5.627,-49.946,-43.529,5.384,-37.164
-34.442,6.521,40.316,-45.461,-8.481,8.193,29.023,1.334,-16.753,31.392,28.479,-0.182,-50.117,-37.356,5.199,-35.250
-39.630,6.495,47.199,-35.446,-2.448,12.278,32.435,-11.216,-12.591,33.325,27.012,-7.124,-49.790,-33.753,10.494,-42.265
-37.950,9.653,39.811,-48.329,-2.545,0.985,33.298,-7.442,-9.013,30.214,23.182,-3.319,-50.345,-34.043,10.747,-43.808
-34.185,18.967,37.229,-37.028,-0.926,-8.363,31.076,-6.370,0.710,34.273,25.584,-1.939,-47.262,-27.926,6.698,-40.094
-40.933,21.950,36.595,-28.278,1.731,4.966,26.190,-17.776,-0.045,28.150,18.414,-11.529,-39.680,-24.740,13.421,-50.964
-33.082,33.126,32.904,-26.505,-6.899,9.100,26.505,-9.385,-5.717,24.371,20.487,-14.913,-40.601,-25.079,14.459,-42.737
-33.768,27.401,21.470,-19.837,-5.484,-1.179,23.340,-14.541,8.073,31.944,23.935,-9.386,-36.272,-30.825,17.175,-40.056
-32.052,34.216,30.903,-25.149,3.905,3.933,21.447,-17.662,9.142,33.084,18.782,-16.602,-42.376,-36.253,7.933,-44.382
-27.296,30.280,31.749,-14.625,1.569,-0.399,18.199,-15.497,15.142,30.337,19.591,-17.903,-42.940,-33.066,13.241,-48.503
-26.783,33.131,31.589,-17.344,3.818,-2.506,11.938,-14.998,16.240,30.746,16.898,-24.690,-40.168,-30.690,19.825,-43.468
-31.747,36.835,27.454,-16.696,8.837,-4.462,11.640,-15.732,23.283,26.649,13.579,-26.984,-33.013,-27.904,15.970,-40.196
-41.820,33.320,13.666,-18.463,8.645,2.831,8.767,-26.884,30.094,24.107,12.227,-23.830,-38.283,-41.093,12.583,-39.953
-42.265,42.769,16.716,-26.482,6.423,4.504,8.758,-18.600,33.147,34.824,14.752,-24.651,-43.295,-35.758,13.145,-37.290
-39.055,38.722,21.640,-17.280,14.996,-12.887,7.535,-25.106,35.257,32.228,11.616,-25.819,-36.222,-29.092,16.233,-40.544
-38.973,43.016,8.569,-23.202,12.173,-9.662,2.342,-27.106,29.145,36.305,7.090,-29.711,-33.021,-30.801,7.497,-45.270
-42.397,47.955,7.414,-17.610,22.467,-15.869,2.486,-23.082,30.759,37.284,9.412,-31.982,-30.384,-34.964,17.790,-37.389
-41.966,42.017,7.585,-21.111,13.880,-10.615,1.451,-32.371,35.515,36.243,9.883,-33.230,-31.945,-37.231,15.121,-45.592
-40.184,45.619,0.388,-15.132,13.443,-4.951,4.195,-20.324,44.328,31.702,5.346,-27.835,-33.979,-38.101,7.849,-41.349
-31.538,37.218,-1.732,-13.790,11.595,-6.741,1.458,-13.700,48.497,30.787,5.101,-41.387,-31.020,-30.859,9.086,-35.318
-40.487,38.580,-7.956,-22.386,10.867,-14.332,-3.026,-24.411,48.282,30.609,0.799,-29.675,-30.970,-34.169,7.830,-32.799
-44.721,38.298,-5.955,-21.174,17.950,-15.015,-10.142,-27.180,46.463,38.418,-6.963,-37.252,-23.060,-45.027,13.359,-35.434
-39.926,44.330,-9.163,-20.888,16.451,-13.166,-11.795,-20.738,56.793,33.942,-12.416,-31.693,-23.093,-41.899,12.298,-31.041
-42.792,56.933,-16.201,-16.516,18.109,-18.757,-12.033,-14.046,51.336,37.796,-17.411,-33.669,-22.731,-41.737,8.247,-24.309
-42.932,55.327,-23.103,-13.003,17.847,-16.141,-12.355,-16.356,60.092,40.274,-13.683,-50.325,-24.141,-39.173,12.069,-21.605
-46.842,51.944,-23.840,-13.016,22.657,-21.065,-8.717,-13.314,55.752,38.468,-21.633,-43.604,-25.142,-47.237,14.278,-20.075
-47.561,44.392,-33.439,-15.838,22.681,-17.879,-10.677,-19.608,55.065,44.872,-25.165,-36.801,-20.498,-36.632,12.730,-13.502
-41.859,45.347,-31.386,-23.220,18.401,-18.491,-14.233,-16.439,57.475,42.918,-23.980,-33.774,-19.678,-35.813,10.632,-17.645
-37.364,45.321,-33.558,-16.448,19.786,-24.246,-11.677,-20.763,63.538,33.870,-32.201,-27.829,-18.012,-42.694,15.850,-19.837
-32.168,44.609,-36.165,-15.394,22.807,-6.907,-17.616,-23.372,60.142,31.186,-30.318,-28.495,-18.363,-40.796,21.866,-12.801
-32.043,34.195,-42.620,-16.850,22.017,-23.648,-23.349,-26.435,57.374,33.102,-34.995,-27.341,-13.442,-36.927,26.132,-1.724
-26.768,27.738,-38.691,-12.292,18.626,-21.749,-22.669,-30.731,66.758,36.315,-35.286,-23.369,-14.236,-33.837,27.553,2.255
-21.689,29.293,-52.821,2.127,25.892,-25.167,-28.096,-16.658,56.371,34.472,-38.016,-29.359,-8.157,-39.335,27.274,4.913
-23.500,34.252,-56.527,-6.580,20.709,-26.352,-24.249,-11.841,53.185,28.033,-37.106,-25.364,-8.156,-37.655,28.943,4.746
-29.446,30.737,-58.195,-5.726,11.316,-24.436,-33.062,-10.480,59.636,26.178,-33.911,-29.264,-4.425,-31.997,33.169,2.791
-26.911,32.146,-51.868,-6.872,19.567,-24.983,-33.339,-23.916,56.922,25.468,-35.661,-29.790,-4.090,-25.730,24.018,6.493
-26.604,24.961,-51.364,2.823,23.790,-30.704,-34.228,-15.456,54.083,19.905,-41.244,-23.710,-3.915,-26.605,26.757,8.128
-28.365,20.347,-38.544,-2.233,20.700,-32.350,-34.868,-15.061,58.186,22.193,-44.642,-32.281,0.908,-24.254,20.874,2.537
-23.857,17.940,-48.147,2.999,19.550,-34.243,-31.890,-20.118,55.018,23.217,-46.386,-33.378,-2.588,-20.857,19.992,16.481
-18.635,13.714,-56.179,-5.114,21.478,-36.082,-28.716,-23.845,51.876,27.351,-53.029,-21.973,-2.733,-19.788,18.452,21.302
-14.766,19.878,-52.601,-2.372,17.481,-38.240,-39.156,-20.083,52.590,15.427,-49.734,-28.640,1.061,-22.836,18.737,22.230
-13.303,15.765,-46.913,0.599,17.293,-33.961,-42.369,-16.162,51.038,14.154,-57.266,-31.490,3.576,-18.991,19.942,23.434
-18.292,5.221,-45.067,-1.564,22.885,-35.821,-43.732,-28.057,49.481,15.347,-51.424,-24.676,6.724,-7.775,20.982,27.004
-16.831,4.690,-39.772,5.585,20.389,-32.645,-37.302,-31.179,45.702,17.737,-43.530,-18.632,2.509,-13.801,22.305,36.221
-12.065,12.309,-41.884,10.727,15.038,-37.884,-41.003,-34.873,51.708,18.683,-45.898,-12.464,-2.335,-11.863,14.001,32.060
-11.792,10.795,-40.381,9.008,17.710,-36.356,-35.702,-34.248,52.697,18.431,-47.294,-4.516,-2.094,-3.038,14.479,34.335
-11.165,2.303,-38.435,4.050,26.244,-34.401,-34.801,-27.193,42.355,9.639,-43.109,-12.562,-1.705,-7.755,0.786,31.790
-14.229,2.790,-38.023,7.259,35.094,-34.011,-40.438,-27.160,36.956,10.381,-43.245,-1.865,-0.202,-5.620,2.765,29.705
-17.002,7.853,-45.428,6.583,26.824,-39.704,-39.069,-26.133,41.461,0.665,-36.609,-0.098,4.575,0.986,4.285,34.525
-14.725,2.612,-51.201,4.678,30.293,-35.061,-33.407,-27.137,32.563,5.122,-46.414,-6.355,3.170,0.265,0.842,32.955
-20.415,-2.961,-42.449,6.672,15.910,-41.021,-36.555,-29.725,26.615,0.638,-43.319,-11.838,-6.683,-3.603,-3.387,37.018
-13.466,-8.361,-40.904,11.977,15.189,-38.694,-39.554,-25.757,28.772,7.596,-41.025,-11.524,-0.506,7.284,-7.014,31.212
-12.218,-6.919,-40.042,17.618,22.286,-35.936,-40.871,-14.929,26.207,-0.549,-38.203,6.371,2.371,10.859,-6.286,32.205
-17.407,-1.004,-39.067,24.071,13.488,-38.836,-37.849,-19.868,22.752,-7.190,-38.203,14.449,1.802,8.909,-5.842,26.744
-13.865,-0.183,-32.793,29.450,16.578,-33.303,-28.074,-24.635,27.787,1.916,-46.347,5.366,11.036,7.789,-5.511,32.140
-14.483,2.927,-39.109,31.306,11.894,-33.282,-30.169,-17.923,16.685,-6.018,-38.843,9.180,13.835,13.625,-3.147,34.755
-11.844,1.453,-41.965,29.254,16.489,-30.276,-28.653,-15.501,15.844,-9.362,-40.546,7.130,8.160,19.176,-10.375,36.219
-2.594,-12.579,-32.869,26.885,7.491,-24.674,-24.501,-14.448,13.622,-7.998,-34.429,2.771,0.730,11.457,-10.104,32.221
-4.372,-17.921,-33.708,20.787,3.708,-25.450,-29.927,-10.431,10.695,-8.556,-30.818,3.963,3.111,16.748,-6.483,31.487
-4.047,-18.607,-31.949,34.160,8.606,-21.904,-22.820,-22.894,16.401,-6.722,-30.789,7.116,9.075,23.854,-4.633,31.389
-0.366,-16.497,-39.648,27.082,8.508,-25.895,-23.815,-15.831,17.165,-20.370,-29.818,12.445,6.687,20.200,-12.989,37.402
-3.786,-23.828,-46.626,23.155,12.307,-23.214,-21.701,-16.291,1.106,-17.256,-22.873,11.439,2.038,28.768,-15.515,47.974
-1.936,-18.127,-47.678,32.839,12.072,-19.818,-22.297,-19.791,7.347,-19.168,-16.230,16.104,9.682,27.405,-24.259,51.035
-9.685,-16.249,-35.316,35.277,9.723,-17.374,-12.000,-14.691,8.950,-20.025,-18.145,17.347,10.299,22.294,-16.644,53.352
0.871,-19.370,-34.704,33.018,8.989,-20.422,-9.938,-7.624,3.355,-20.767,-16.859,21.465,10.651,29.940,-27.389,51.448
-2.370,-25.557,-31.798,34.411,0.796,-14.730,-11.884,-6.367,6.027,-22.999,-14.702,29.965,6.998,23.172,-27.433,38.021
7.148,-21.605,-37.263,35.694,-6.118,-9.718,-2.941,-15.247,0.044,-27.568,-13.457,35.224,5.540,32.235,-26.966,37.825
0.777,-25.218,-31.410,31.239,-8.633,-7.345,-2.967,-7.628,5.763,-25.355,-16.279,33.957,6.344,31.633,-21.194,40.773
0.803,-19.096,-27.313,29.153,-3.482,-2.385,5.290,-12.539,5.426,-29.305,-11.945,36.514,10.341,35.216,-27.168,26.940
-1.914,-17.308,-27.405,26.820,-14.558,-1.638,8.154,-1.029,-3.543,-30.733,-12.930,35.923,22.299,40.729,-31.048,36.132
4.242,-19.938,-19.136,23.144,-6.238,2.375,11.362,7.165,-7.958,-24.907,-14.883,31.130,10.384,40.970,-34.625,35.057
10.545,-25.648,-21.578,24.086,-6.324,-2.458,18.239,11.521,-9.722,-26.806,-12.488,25.428,12.604,36.192,-34.215,38.466
13.565,-32.025,-19.676,20.642,-17.116,-3.626,13.390,14.433,-6.762,-24.194,-16.466,31.340,16.154,38.684,-31.708,33.975
12.113,-29.497,-14.515,16.513,-14.547,15.615,7.490,21.746,-4.213,-30.594,-6.459,32.541,10.378,44.995,-30.098,33.109
21.424,-23.542,-9.966,19.785,-19.470,11.827,15.410,14.858,-3.795,-37.395,-2.757,37.177,6.280,51.371,-33.565,34.636
15.921,-21.080,-7.597,20.964,-16.084,9.308,21.219,22.180,-8.572,-38.056,-1.916,39.786,12.881,45.823,-27.849,24.631
18.399,-22.860,-17.437,21.316,-11.061,11.097,30.903,20.918,-11.208,-34.205,0.650,46.248,19.058,39.538,-28.446,27.632
25.816,-25.297,-10.370,18.251,-19.527,19.933,31.237,21.350,-3.991,-30.700,5.121,36.819,24.737,46.291,-35.622,25.807
25.300,-16.585,-16.588,15.822,-24.883,15.378,30.608,10.775,-7.542,-37.106,6.181,30.610,20.017,56.802,-26.598,17.254
26.355,-22.346,-13.018,23.914,-25.371,14.117,25.970,20.910,-11.766,-32.807,8.952,35.398,25.014,57.001,-32.065,18.014
29.328,-29.752,-5.427,19.172,-24.842,20.456,38.228,23.125,-19.046,-39.679,10.588,38.154,26.354,59.784,-35.417,13.638
28.535,-27.513,-1.946,30.507,-25.649,19.917,40.814,29.463,-23.920,-35.449,14.803,34.822,25.547,49.852,-39.908,3.694
19.934,-25.731,-5.577,22.128,-29.157,23.972,41.102,23.134,-20.067,-32.420,17.642,35.015,27.805,46.103,-35.557,7.418
29.760,-15.252,6.105,18.550,-33.281,26.519,40.851,21.186,-14.841,-30.256,21.497,37.001,23.957,47.878,-42.738,12.716
41.288,-19.248,-1.255,22.468,-37.509,17.652,45.290,23.296,-19.589,-24.233,15.046,29.411,24.614,45.061,-44.625,10.515
40.068,-28.609,-1.681,15.161,-31.809,28.174,50.603,29.238,-14.851,-23.748,13.168,35.720,19.002,42.732,-40.452,8.435
39.396,-11.869,6.805,18.802,-35.191,32.749,50.181,33.738,-21.204,-22.231,16.517,33.686,19.250,34.353,-43.208,8.258
36.047,-20.817,13.783,10.195,-37.411,41.937,53.287,30.759,-24.870,-23.842,26.520,35.617,21.190,44.725,-43.875,9.834
36.017,-19.088,14.018,11.382,-36.527,44.671,55.205,43.497,-26.499,-21.743,25.707,35.296,19.000,48.316,-43.096,8.256
36.613,-25.628,16.259,10.715,-34.737,42.438,55.043,39.040,-26.157,-22.962,25.494,43.993,24.180,39.773,-43.955,-0.298
40.566,-28.517,11.981,14.108,-28.752,47.155,58.510,37.315,-33.086,-25.487,22.864,41.326,19.391,33.722,-44.374,-1.750
50.783,-30.954,14.288,13.065,-39.216,44.137,52.273,44.552,-25.548,-25.142,28.280,35.481,16.299,28.529,-36.512,-2.465
45.461,-25.827,14.832,11.612,-35.969,38.594,58.340,43.729,-24.643,-22.989,25.271,36.070,21.288,29.493,-38.979,3.456
44.835,-24.280,12.512,8.004,-37.466,48.286,54.324,41.138,-26.041,-22.200,23.098,38.520,18.512,19.928,-37.210,-10.358
39.539,-27.545,12.169,-1.526,-37.095,49.998,51.946,41.082,-21.087,-16.443,21.490,37.288,17.552,19.108,-45.124,-4.997
44.324,-28.665,14.926,-4.236,-30.420,53.255,54.882,52.403,-25.965,-11.795,23.431,43.221,25.639,20.755,-39.953,-10.414
47.032,-26.234,15.501,-13.580,-34.443,43.843,55.349,58.920,-29.958,-16.164,20.603,34.180,17.970,17.097,-32.157,-5.561
45.142,-26.754,13.028,-13.384,-38.652,48.242,58.779,59.498,-31.842,-6.305,28.579,32.703,15.024,17.462,-33.807,-3.163
44.337,-32.044,12.002,-20.616,-39.516,49.584,60.270,54.374,-29.156,-11.870,28.928,43.799,19.249,17.579,-35.448,-9.897
43.066,-37.809,17.234,-31.171,-30.150,58.143,58.517,61.832,-29.209,-9.808,25.102,46.058,16.889,16.346,-28.224,-6.954
44.800,-41.389,8.389,-36.245,-38.760,61.574,57.390,69.947,-33.871,-6.621,23.303,46.312,9.092,14.202,-31.631,-8.338
41.433,-36.956,16.053,-37.427,-42.356,60.938,55.032,69.187,-41.983,-1.885,22.172,42.837,3.323,10.068,-27.926,-14.073
52.628,-33.967,16.811,-38.841,-39.799,52.044,48.248,72.566,-42.468,0.976,26.723,43.451,5.068,0.272,-28.523,-12.461
38.635,-39.042,20.731,-37.062,-42.212,45.935,41.761,71.539,-43.682,-1.782,22.758,44.576,8.658,0.976,-19.318,-12.144
31.496,-31.258,18.256,-38.512,-37.787,47.553,47.939,62.692,-46.568,3.815,22.469,53.975,3.011,0.359,-25.012,-4.668
34.733,-25.330,20.123,-35.802,-37.679,54.577,47.123,73.431,-42.528,11.103,20.984,50.906,6.120,-5.100,-22.787,-8.716
31.490,-27.809,16.865,-41.270,-42.478,50.553,39.370,67.075,-40.079,12.406,19.109,51.987,3.590,-13.953,-22.469,-14.806
23.223,-34.487,15.616,-53.843,-40.479,57.206,47.708,63.960,-44.920,7.844,21.762,52.460,7.061,-19.958,-21.653,-12.016
23.189,-35.597,22.770,-52.521,-45.264,53.083,41.799,58.964,-47.474,15.326,29.536,48.932,-2.150,-21.005,-24.362,-10.787
21.361,-35.233,19.088,-48.877,-32.542,48.194,38.418,61.044,-49.974,18.327,23.813,47.212,0.323,-21.244,-16.067,-11.870
27.810,-30.032,12.787,-49.512,-22.312,45.886,37.319,59.368,-56.108,13.829,21.941,43.178,0.263,-28.912,-12.595,-3.797
22.747,-34.976,21.468,-42.220,-28.315,46.890,36.198,61.235,-44.166,16.505,22.884,40.797,-10.074,-31.462,-7.384,-6.957
21.085,-30.039,21.619,-61.058,-18.707,44.023,36.650,58.975,-46.038,16.210,24.603,47.208,-9.240,-30.663,-4.709,-8.902
17.845,-21.605,23.231,-63.710,-22.287,49.293,34.508,64.588,-44.954,16.360,19.642,46.066,-14.721,-31.696,-6.625,-5.534
14.173,-20.793,24.653,-54.973,-20.481,47.735,34.476,63.131,-42.482,23.318,21.819,40.171,-11.554,-26.965,-2.612,-4.016
10.782,-20.150,22.282,-61.002,-21.237,39.165,29.732,48.814,-47.461,21.608,18.519,46.817,-18.750,-35.289,-0.346,-4.077
9.830,-22.089,29.917,-57.940,-19.383,38.261,32.973,46.607,-52.359,21.293,17.574,46.026,-22.010,-31.679,0.498,-16.572
13.079,-19.062,25.934,-60.676,-19.909,33.775,38.077,56.001,-48.238,25.787,17.648,42.515,-23.521,-23.043,2.326,-13.107
5.599,-22.300,30.473,-62.267,-14.985,26.800,32.598,46.148,-46.383,20.021,21.166,40.864,-23.069,-29.267,3.887,-3.869
4.242,-21.100,23.579,-64.838,-5.748,25.432,20.554,50.874,-41.161,26.291,20.155,37.079,-26.621,-28.298,14.038,-9.549
-1.974,-17.008,21.425,-60.368,-5.467,21.859,21.638,35.314,-43.783,29.472,20.838,41.565,-31.241,-34.074,17.870,-10.908
1.256,-20.735,26.656,-65.053,-4.645,14.724,30.270,38.062,-40.711,22.164,21.735,36.121,-27.996,-37.762,17.712,-10.976
8.974,-12.633,24.814,-64.208,-3.179,9.075,25.473,38.465,-34.937,23.045,17.179,46.093,-23.352,-41.296,16.169,-11.701
-2.513,-14.258,15.775,-54.453,-1.879,12.489,25.287,32.967,-40.778,24.818,17.544,41.466,-27.425,-40.291,17.630,-11.225
0.279,-8.718,31.486,-59.621,5.380,21.552,20.607,32.746,-43.986,26.717,20.669,45.208,-34.952,-43.708,26.488,-17.235
-4.286,-12.626,17.627,-52.991,-0.477,18.148,27.047,27.339,-38.067,35.241,20.124,39.902,-31.674,-47.101,23.513,-15.530
-12.930,-10.459,16.262,-52.780,4.657,18.611,31.381,22.762,-43.355,35.791,18.999,40.133,-37.552,-45.287,25.753,-14.504
-9.370,-4.149,25.652,-47.995,-1.575,9.170,24.156,25.305,-33.699,30.788,16.992,39.773,-36.975,-49.725,34.279,-14.537
-16.297,-5.682,27.417,-47.268,-0.536,6.434,24.706,25.547,-23.965,34.738,19.446,26.554,-41.623,-42.794,35.208,-10.208
-21.969,-5.116,26.615,-52.516,5.996,3.814,22.930,16.588,-31.303,34.746,14.452,22.127,-45.248,-42.594,34.016,-8.978
-22.195,-5.515,20.922,-49.152,15.498,12.045,23.728,10.684,-26.034,30.942,14.947,28.470,-43.974,-48.113,27.817,-10.942
-22.291,0.682,27.319,-41.112,23.939,11.228,21.636,2.653,-29.162,29.265,14.744,28.066,-51.927,-44.081,25.868,-22.639
-18.088,-0.602,38.643,-38.303,14.630,-1.281,18.176,-1.524,-25.849,35.470,11.495,25.039,-45.623,-41.520,30.277,-16.186
-19.798,9.309,37.552,-34.797,20.941,-10.545,17.341,-10.513,-23.197,32.471,6.762,28.154,-43.670,-38.671,23.129,-15.587
-22.924,1.886,35.585,-34.984,20.119,-3.835,11.546,-6.176,-25.478,28.493,4.880,16.620,-44.181,-41.254,26.308,-25.211
-30.282,4.824,30.784,-38.619,14.537,-2.017,21.554,-0.649,-21.547,27.435,3.346,11.552,-49.972,-39.913,31.124,-21.279
-36.431,6.637,28.508,-33.471,19.086,1.411,14.862,-14.101,-13.949,25.633,5.190,8.940,-47.819,-38.290,40.523,-21.914
-32.574,8.683,25.952,-30.163,21.304,-3.009,13.566,-11.968,-9.281,28.868,1.847,8.280,-45.057,-37.877,35.054,-22.391
-42.075,7.983,26.495,-26.962,24.872,-7.846,19.441,-10.635,-10.052,30.136,5.586,1.909,-47.481,-41.444,35.203,-21.666
-39.150,20.125,23.638,-30.551,35.186,-17.643,15.821,-12.493,1.477,31.790,-0.066,6.550,-51.411,-31.267,30.572,-24.771
-46.599,17.719,20.843,-26.133,29.510,-20.765,13.585,-14.773,-5.377,29.222,8.947,5.606,-48.733,-29.510,34.950,-22.346
-40.835,20.449,17.691,-28.372,30.222,-19.764,9.529,-15.015,-0.057,31.265,15.363,3.987,-47.415,-30.337,32.338,-21.418
-35.084,25.664,16.351,-22.020,33.279,-12.224,8.199,-10.347,0.150,33.951,8.578,-5.395,-45.584,-34.082,27.951,-21.660
-47.067,27.551,24.331,-24.576,34.961,-17.439,12.060,-21.866,1.273,25.465,5.922,-6.876,-45.553,-27.197,32.514,-19.231
-44.305,32.284,16.124,-23.167,35.868,-17.379,4.353,-14.759,6.252,27.058,1.508,-10.544,-41.760,-22.862,36.722,-17.634
-44.933,35.276,12.559,-13.936,33.420,-13.430,3.017,-22.005,8.638,27.928,0.632,-12.080,-33.135,-28.030,34.089,-20.239
-55.892,38.137,15.210,-19.403,30.013,-18.927,1.921,-23.656,11.183,29.020,0.665,-15.243,-31.515,-27.506,31.572,-22.649
-58.119,36.378,13.136,-16.559,27.874,-23.298,-7.215,-34.415,11.426,25.209,0.736,-16.688,-24.615,-28.507,26.888,-23.280
-57.949,41.789,12.728,-10.103,35.590,-16.210,-8.615,-31.607,17.375,27.176,-0.469,-24.658,-28.068,-25.019,23.145,-21.519
-53.110,34.992,6.287,-2.677,27.559,-18.129,-12.581,-36.173,21.746,24.745,-8.348,-27.310,-28.068,-29.723,30.253,-24.555
-58.582,29.722,1.279,-4.720,23.833,-18.932,-13.174,-26.971,24.381,24.845,-8.426,-30.251,-31.557,-15.253,29.696,-24.035
-45.518,40.991,-2.753,-7.979,34.201,-19.612,-11.116,-34.114,29.218,17.564,-7.045,-24.022,-28.773,-16.225,21.138,-25.700
-47.557,33.940,-3.892,-3.291,30.745,-23.636,-22.200,-36.339,31.199,16.263,-3.062,-20.384,-23.742,-13.354,23.076,-26.478
-41.089,29.527,-4.925,-3.713,23.027,-19.420,-17.787,-44.797,33.269,17.973,-4.400,-22.383,-22.557,-16.491,23.537,-21.605
-43.636,30.017,-4.466,-3.531,23.635,-24.138,-14.754,-49.398,38.256,21.960,-8.084,-22.318,-17.243,-13.518,18.430,-21.746
-47.563,34.067,-4.668,-2.681,19.973,-27.283,-17.085,-50.020,36.116,15.636,-6.462,-40.769,-19.354,-20.652,18.621,-28.123
-42.602,20.601,-8.420,-11.860,24.706,-16.116,-20.229,-47.454,34.055,10.910,-2.099,-37.877,-17.867,-13.256,22.146,-24.634
-39.827,32.091,-15.682,1.044,30.811,-15.245,-13.499,-37.209,32.462,10.974,-7.958,-35.008,-18.800,-10.299,20.060,-27.269
-36.929,31.534,-13.535,14.735,26.214,-21.478,-13.654,-37.831,44.600,13.611,-16.560,-34.062,-19.066,-11.186,15.565,-19.112
-38.834,37.626,-20.182,4.097,32.221,-18.291,-6.408,-41.254,46.224,12.055,-12.455,-41.129,-11.668,-14.711,15.001,-5.571
-38.735,41.772,-25.491,5.236,28.757,-19.699,-8.101,-39.061,42.498,12.978,-17.164,-35.859,-9.442,-12.238,13.345,-9.824
-38.023,43.351,-18.446,6.939,37.906,-22.284,-7.397,-42.599,43.603,8.785,-12.472,-33.072,-4.622,-8.708,5.528,-2.393
-34.941,48.126,-24.594,14.635,29.706,-15.340,-11.746,-47.052,45.455,5.158,-16.158,-36.546,-4.210,-3.882,4.553,-5.336
-30.311,41.663,-36.210,6.985,25.489,-20.999,-17.031,-36.488,44.540,6.672,-18.765,-38.794,-6.771,-1.335,6.035,2.729
-28.116,40.016,-42.754,9.814,24.354,-21.579,-13.250,-34.657,42.462,3.405,-20.351,-33.755,1.725,-9.533,1.747,4.206
-25.999,49.549,-29.017,19.421,30.297,-21.967,-16.768,-42.679,49.895,7.954,-25.884,-38.548,3.564,-11.885,-2.462,-5.516
-25.573,52.582,-44.691,20.416,18.327,-13.500,-19.438,-41.431,52.372,6.450,-28.224,-28.649,1.508,-18.506,0.522,2.763
-22.381,53.425,-37.211,24.710,19.060,-15.026,-26.959,-44.580,54.155,12.454,-29.967,-25.372,3.179,-10.969,-1.154,0.916
-19.014,40.530,-50.272,23.230,20.536,-14.095,-23.270,-36.151,55.724,5.287,-29.023,-22.935,9.237,-8.253,1.781,1.849
-14.519,47.295,-52.125,20.275,20.914,-14.117,-24.086,-29.264,45.620,0.083,-28.089,-34.391,11.550,0.393,-0.915,5.246
-14.074,46.720,-52.156,16.935,24.489,-20.030,-21.603,-24.564,43.903,2.057,-29.770,-36.705,16.375,-1.174,-1.977,8.409
-12.912,40.507,-48.524,23.128,10.471,-19.475,-17.161,-28.093,43.770,-5.949,-28.301,-33.705,22.235,0.426,1.677,18.954
-12.226,38.289,-45.225,26.159,5.944,-19.249,-14.380,-30.715,48.572,-7.834,-32.349,-24.715,24.423,-3.077,1.125,20.515
-10.361,33.169,-50.723,23.658,6.800,-16.902,-23.484,-22.936,45.495,-3.288,-37.667,-21.441,22.219,-3.542,-3.698,20.863
-17.811,34.453,-55.305,15.620,11.102,-16.931,-31.634,-25.402,50.519,-4.937,-41.956,-20.847,20.175,-5.096,-5.387,19.335
-15.098,25.775,-52.672,20.457,13.284,-17.098,-23.653,-25.935,49.970,1.510,-41.595,-24.943,23.263,-1.938,-0.360,30.205
-13.071,24.483,-58.377,35.595,3.648,-9.820,-15.472,-9.118,49.169,-4.273,-41.083,-26.816,30.114,-3.926,-4.674,27.553
-8.772,23.826,-67.900,24.440,19.640,-12.025,-27.638,-10.479,54.213,-15.297,-42.843,-14.345,26.343,-5.713,-3.591,27.720
3.939,16.299,-74.836,31.777,20.482,-14.728,-29.122,-15.094,47.504,-11.896,-41.864,-16.702,31.502,-3.919,-6.003,29.516
10.098,14.337,-79.875,32.336,10.152,-19.954,-25.597,-17.632,50.369,-15.659,-42.686,-15.543,32.108,-5.094,-8.841,32.203
2.636,8.003,-79.777,37.790,11.929,-15.280,-26.142,-16.294,38.354,-14.640,-44.783,-9.881,34.033,13.203,-7.569,31.168
3.370,-1.878,-73.348,28.547,9.203,-7.676,-28.408,-9.352,31.037,-14.368,-46.723,-7.706,35.628,6.749,-13.803,35.104
6.439,1.618,-72.711,25.403,7.244,-20.052,-25.382,-4.280,28.731,-9.137,-47.250,3.661,40.408,13.390,-9.746,37.110
1.548,0.560,-60.114,22.321,7.258,-19.738,-21.413,-1.940,22.539,-6.479,-42.289,-6.855,35.644,18.756,-12.676,36.122
12.996,5.452,-60.245,25.838,11.146,-14.886,-32.785,7.870,17.669,-7.801,-40.564,-11.230,32.095,16.019,-10.373,38.841
15.215,-0.429,-53.796,26.030,8.663,-5.025,-32.246,7.598,31.980,-12.879,-46.362,5.198,34.642,13.766,-12.489,44.727
13.768,-3.774,-58.704,19.010,2.097,-16.204,-25.543,3.559,29.304,-15.954,-49.384,6.034,37.010,8.447,-12.354,38.000
19.780,-8.982,-55.284,23.580,4.762,-11.174,-17.159,7.720,19.148,-13.987,-45.799,6.580,36.599,6.009,-10.311,43.651
15.296,-11.177,-56.710,25.688,5.811,-15.492,-20.376,18.747,17.801,-12.821,-43.920,10.909,35.556,11.287,-14.952,43.123
13.131,-10.343,-55.124,29.152,3.488,-12.748,-15.896,13.355,15.048,-20.589,-43.011,13.991,32.477,18.258,-4.955,41.922
11.936,-15.453,-59.410,19.279,0.435,-12.803,-26.359,16.441,14.148,-20.017,-44.846,12.725,27.159,18.685,-7.685,45.716
14.705,-11.236,-66.065,20.836,-2.622,-11.191,-25.952,19.058,12.987,-18.396,-36.159,19.513,33.561,22.243,-11.362,44.851
25.841,-20.524,-69.813,16.341,-0.091,-13.609,-28.507,15.883,5.021,-19.983,-35.958,18.990,29.786,7.413,-12.128,46.471
23.286,-24.275,-56.885,18.596,3.129,-12.906,-28.121,16.815,-0.208,-21.240,-40.430,23.784,29.154,17.632,-10.064,42.668
14.830,-26.399,-58.045,16.981,1.983,-17.238,-21.331,21.742,0.023,-21.328,-36.215,25.801,25.531,24.954,-17.630,35.289
16.919,-27.491,-44.670,22.271,0.536,-19.596,-21.072,19.558,-0.953,-19.551,-37.017,26.630,32.434,33.392,-15.212,37.371
18.891,-31.257,-47.054,23.314,1.794,-15.067,-15.318,11.256,-6.594,-19.959,-28.288,25.049,29.207,33.167,-16.055,48.266
13.362,-38.494,-43.944,23.092,7.050,-4.855,-13.862,6.944,-8.840,-19.494,-32.515,29.477,35.181,27.436,-19.266,45.596
15.459,-33.485,-30.576,16.413,-0.126,1.455,-8.088,17.986,-9.745,-24.911,-32.612,31.560,30.930,31.826,-12.578,42.738
24.824,-39.738,-24.863,20.239,-0.667,3.304,-6.824,6.669,-9.623,-34.545,-32.592,34.834,34.937,35.643,-11.665,53.631
23.031,-39.531,-30.123,15.215,1.113,-5.501,-4.345,10.021,-17.542,-29.380,-27.176,34.610,27.183,31.852,-15.338,50.114
24.213,-39.020,-27.188,7.376,-6.584,-6.111,9.862,9.052,-23.309,-30.652,-24.513,38.188,33.447,38.762,-16.963,45.280
21.145,-47.916,-22.582,8.429,-1.038,5.473,8.428,12.989,-28.750,-27.063,-29.577,40.974,31.588,40.437,-18.190,43.782
20.178,-46.656,-26.065,16.304,5.810,-0.235,4.493,14.959,-32.757,-26.657,-19.892,34.480,31.741,32.226,-20.727,39.646
26.350,-50.427,-21.028,22.004,2.688,-1.829,9.858,14.500,-32.873,-28.739,-19.635,44.542,33.164,36.187,-27.631,40.667
29.133,-46.572,-17.153,21.619,4.704,1.131,10.595,15.924,-37.473,-26.190,-16.228,38.534,31.716,31.234,-26.357,43.946
26.809,-53.400,-23.334,10.037,-2.671,4.040,15.631,13.340,-46.140,-28.168,-13.399,40.129,25.321,36.478,-22.412,37.384
28.988,-47.676,-24.241,11.579,-9.107,2.621,12.264,5.424,-43.293,-28.583,-10.955,41.163,30.631,36.467,-29.120,37.694
31.487,-46.796,-16.519,16.478,-6.400,13.568,15.251,13.142,-30.989,-29.537,-6.066,46.077,25.756,33.264,-25.964,39.707
26.298,-48.265,-20.175,2.576,-1.368,13.016,20.870,13.392,-39.905,-24.459,-2.478,46.692,26.313,33.723,-26.890,36.137
22.067,-47.048,-18.298,13.898,-7.778,14.867,21.478,22.385,-43.176,-31.459,10.248,51.502,23.576,31.757,-30.958,36.332
24.153,-44.201,-8.587,16.933,-7.528,13.711,26.034,24.068,-44.598,-25.626,9.612,46.921,26.263,23.512,-31.068,35.974
26.559,-48.306,-4.146,2.941,-7.898,17.683,28.324,30.364,-49.428,-26.590,8.182,41.819,27.323,30.135,-29.148,35.618
20.975,-50.373,-4.677,6.215,-10.634,17.363,24.627,32.176,-40.114,-31.967,6.031,42.163,21.965,36.925,-30.026,31.086
26.132,-47.403,3.354,4.911,-12.534,11.318,34.842,38.621,-40.512,-37.983,11.207,44.457,24.561,40.407,-35.357,30.871
32.508,-49.896,11.599,7.420,-10.461,14.935,32.213,32.191,-46.592,-34.097,10.993,46.782,14.133,33.344,-33.006,25.385
22.076,-51.614,17.253,-3.509,-12.434,17.721,40.187,27.558,-43.177,-34.177,14.270,49.238,11.463,32.989,-31.278,17.105
24.938,-56.193,19.971,1.135,0.363,22.695,35.721,32.730,-35.742,-37.137,12.301,44.814,11.863,41.382,-35.424,21.493
33.739,-52.052,4.991,8.213,-8.665,24.889,36.795,25.622,-35.790,-28.906,11.634,51.623,14.520,45.696,-40.639,18.388
38.697,-47.153,14.688,1.797,-8.131,22.654,42.043,26.594,-47.048,-31.751,10.603,50.075,12.989,39.043,-33.719,19.726
32.488,-43.531,15.780,-1.880,-7.438,19.362,41.522,41.115,-42.470,-27.715,17.333,52.504,12.827,30.783,-31.158,8.971
33.785,-42.519,23.849,3.789,-7.178,23.271,35.061,39.879,-38.760,-30.333,22.437,50.738,10.382,36.783,-28.682,11.291
28.981,-44.526,33.838,4.338,-12.989,20.654,39.831,40.835,-47.070,-31.746,22.787,56.897,8.705,30.017,-28.868,5.356
31.059,-43.641,24.388,-10.510,-14.644,27.412,47.811,44.252,-43.360,-29.740,22.457,49.758,7.345,30.415,-36.060,10.220
33.254,-43.672,33.072,-4.234,-19.963,31.588,44.941,41.553,-34.829,-27.485,28.279,48.068,4.602,26.644,-29.761,2.037
39.705,-42.752,33.697,-9.412,-22.642,34.412,55.090,38.690,-34.467,-26.086,25.563,44.584,11.710,26.528,-26.429,-2.654
34.012,-41.166,37.765,-12.376,-20.142,33.441,59.742,40.527,-35.463,-20.233,31.107,39.117,7.625,26.353,-34.820,-2.136
28.232,-31.808,35.276,-7.642,-14.577,42.679,60.488,47.180,-45.286,-17.841,31.755,33.941,7.108,24.790,-31.779,-3.195
26.453,-30.061,24.471,-17.851,-25.757,31.437,55.505,37.754,-46.117,-14.937,34.330,32.297,8.120,15.381,-36.109,0.848
25.851,-37.832,30.634,-17.980,-23.693,39.329,58.612,40.169,-46.307,-13.895,35.138,33.600,2.506,15.816,-34.452,0.828
25.936,-31.365,34.532,-13.219,-26.996,47.499,50.777,44.923,-42.969,-13.039,35.278,36.342,2.087,21.093,-35.849,-3.699
22.311,-27.931,29.665,-7.173,-31.155,36.147,52.504,41.136,-48.886,-18.196,35.145,33.113,3.848,17.029,-26.920,-2.690
30.048,-23.407,30.421,-4.191,-29.356,41.553,45.974,35.435,-48.740,-15.498,29.907,37.021,9.215,13.088,-29.890,-8.664
26.106,-24.017,35.223,-14.247,-29.616,44.329,51.417,42.374,-51.490,-9.121,31.254,35.940,9.379,6.040,-26.785,-10.669
25.031,-22.713,35.029,-20.113,-22.256,45.496,52.028,35.492,-41.501,-9.396,26.746,33.120,-2.029,3.349,-26.294,-13.229
23.241,-24.900,25.716,-28.601,-29.050,38.096,47.508,44.043,-37.003,-9.864,28.803,35.372,-0.623,-7.029,-25.737,-17.798
28.142,-11.875,33.873,-32.392,-33.971,34.676,46.552,36.058,-34.643,-8.107,22.570,27.500,-0.765,-7.422,-25.959,-19.323
31.734,-19.664,44.509,-36.609,-29.663,40.730,40.813,48.248,-39.779,-7.170,28.364,26.265,-4.531,-16.815,-20.465,-20.246
33.768,-15.464,42.820,-36.217,-29.592,39.978,44.321,49.920,-41.050,-9.505,19.963,29.909,-3.421,-12.546,-18.105,-17.690
29.934,-20.611,40.035,-32.632,-23.964,37.149,41.781,47.990,-33.813,1.076,24.117,29.795,-5.721,-19.432,-16.261,-12.016
23.131,-18.007,40.074,-37.855,-16.609,45.349,47.840,49.557,-41.516,5.128,21.661,36.595,-6.006,-14.037,-9.474,-14.257
36.613,-7.745,42.050,-48.155,-19.193,46.318,50.235,47.809,-48.394,-0.249,21.313,21.578,-3.795,-5.956,-10.682,-20.035
29.722,-7.099,42.701,-52.320,-23.447,40.283,45.109,44.953,-35.697,4.842,15.931,28.053,-6.686,-11.022,-9.098,-12.578
26.288,-8.375,36.939,-47.236,-28.627,38.614,42.804,47.168,-36.746,14.535,21.636,19.870,-8.256,-14.616,-9.446,-25.550
24.345,-10.629,32.105,-42.556,-26.430,35.214,43.710,50.944,-34.303,20.056,19.053,27.127,-6.889,-19.782,-5.302,-12.138
21.251,-15.427,35.926,-54.419,-20.598,31.817,33.446,48.551,-22.521,20.787,22.686,28.486,-13.404,-27.831,-3.133,-17.389
21.269,-9.738,35.555,-53.952,-16.047,30.524,35.425,50.228,-22.984,25.772,29.731,34.076,-9.113,-29.574,-2.025,-13.885
22.089,-8.563,27.769,-58.736,-8.311,36.211,35.764,42.585,-21.664,16.084,28.617,25.019,-12.442,-26.849,0.555,-11.619
17.446,-4.253,19.907,-55.550,-12.010,30.545,36.659,42.475,-21.946,21.319,25.352,21.596,-12.907,-40.874,-0.248,-13.294
15.275,-9.295,25.205,-44.624,0.390,27.140,29.515,38.555,-23.665,22.272,21.833,18.689,-7.667,-34.310,3.859,-8.416
11.503,-8.158,20.900,-49.768,-9.237,21.127,30.901,31.782,-18.729,27.147,19.037,17.204,-6.600,-40.251,6.202,-14.527
13.855,-0.276,35.636,-56.903,-8.483,29.412,34.098,35.433,-13.232,34.984,18.938,26.755,-22.464,-42.534,8.970,-16.389
0.593,-0.803,32.225,-49.382,-1.922,22.724,30.312,31.867,-9.162,33.363,13.939,27.946,-18.660,-53.129,7.906,-21.767
4.988,2.868,19.935,-48.899,1.867,21.555,19.593,25.188,-13.541,36.099,8.842,27.925,-18.556,-48.136,4.329,-22.672
10.410,0.278,20.118,-47.461,-7.860,23.245,12.546,22.422,-10.632,36.986,4.829,27.275,-17.243,-61.309,2.789,-15.663
4.584,6.396,26.609,-47.169,-6.034,21.026,17.822,26.993,-8.997,38.486,3.615,16.079,-21.637,-58.270,5.972,-12.213
-2.190,5.521,27.862,-50.506,-2.560,22.312,19.114,16.806,-16.415,40.087,0.875,22.233,-27.048,-62.355,10.024,-17.007
-0.999,7.856,22.204,-52.101,0.201,18.463,8.993,17.648,-20.545,38.025,-1.247,22.597,-27.430,-61.642,19.742,-25.463
-0.167,0.566,14.795,-47.952,-1.085,23.132,5.237,20.268,-22.215,46.139,-1.650,11.512,-30.237,-59.649,25.715,-21.359
-9.025,6.813,11.650,-51.602,0.672,11.936,11.460,11.121,-24.468,45.905,0.362,9.355,-29.149,-54.289,25.363,-18.364
-4.536,5.988,8.038,-58.374,-2.411,12.875,4.546,0.019,-27.427,43.254,-2.830,16.022,-30.765,-56.241,24.418,-23.069
-7.272,15.262,9.698,-56.745,1.629,9.348,9.342,2.140,-23.690,50.003,-0.475,10.899,-35.793,-56.500,27.752,-17.855
-16.064,14.952,9.892,-55.018,8.609,3.028,-1.835,1.534,-24.125,48.454,-0.483,14.069,-41.713,-61.189,28.831,-27.679
-20.277,4.568,0.293,-52.968,2.940,-6.488,-10.407,3.852,-22.549,38.731,-0.339,16.030,-37.391,-54.847,24.141,-20.378
-22.501,4.816,13.720,-55.541,8.052,-9.455,-3.890,6.926,-24.690,43.708,1.837,15.192,-37.700,-58.853,30.859,-18.185
-20.240,7.315,10.729,-50.504,22.124,-4.302,-9.668,2.767,-21.420,43.506,-3.773,6.356,-45.165,-63.819,31.445,-17.550
-21.116,-0.026,8.405,-38.321,19.677,-14.727,-9.139,0.053,-20.455,40.493,-16.220,15.610,-42.665,-63.930,36.126,-10.311
-26.350,8.685,1.594,-39.724,24.182,-20.094,-7.028,-5.450,-23.542,41.908,-10.365,4.217,-42.485,-64.552,35.519,-7.078
-25.065,5.005,4.682,-41.538,24.669,-13.828,-13.162,-3.598,-22.919,36.712,-9.366,-1.209,-40.905,-62.854,36.795,-9.761
-38.732,10.873,8.667,-44.147,24.164,-19.515,-13.362,-13.217,-13.964,37.358,-4.270,3.663,-39.879,-60.858,34.868,-13.818
-38.912,15.727,3.200,-38.048,24.107,-16.655,-14.559,-14.393,-15.484,40.606,-5.568,-3.787,-37.562,-55.503,33.873,-4.402
-36.128,13.593,-3.618,-43.045,26.846,-25.039,-13.745,-6.987,-20.340,36.430,-10.637,-5.107,-38.042,-52.634,37.435,-6.905
-33.576,13.596,1.566,-29.457,28.652,-22.267,-20.668,-12.981,-8.234,38.328,-12.302,0.507,-41.284,-55.248,36.101,-8.003
-32.364,19.880,10.342,-23.341,31.446,-32.017,-22.222,-17.395,-8.644,39.971,-13.650,0.134,-35.431,-51.229,30.284,-7.666
-39.997,22.314,1.422,-25.048,29.604,-24.414,-23.115,-17.735,-4.249,34.106,-17.262,-8.001,-46.008,-56.617,33.146,-12.021
-37.748,16.758,-1.625,-24.111,22.638,-34.104,-27.161,-29.204,-8.845,34.815,-19.964,-10.005,-43.979,-49.736,38.177,-14.541
-35.089,10.442,-1.384,-23.408,35.493,-30.470,-29.476,-25.358,-2.630,30.935,-19.707,-21.411,-39.289,-47.975,39.370,-14.321
-37.236,15.989,2.076,-22.086,42.836,-32.279,-32.235,-34.524,-3.452,25.836,-19.974,-15.102,-42.710,-49.895,42.470,-20.210
-44.005,14.716,1.986,-15.603,48.985,-41.093,-32.952,-35.725,-2.932,22.689,-20.509,-15.530,-36.568,-44.460,35.887,-20.250
-48.008,24.839,-7.142,-9.339,57.773,-40.915,-32.428,-41.636,-0.952,18.924,-19.525,-16.834,-41.743,-36.584,37.067,-15.280
-45.440,31.107,1.570,-14.350,55.344,-43.200,-32.100,-42.990,-5.328,22.934,-18.352,-17.978,-44.314,-40.563,35.877,-19.721
-45.992,28.330,4.744,-20.094,44.678,-38.386,-29.342,-41.436,-13.762,21.308,-16.450,-10.263,-39.462,-35.652,35.127,-22.285
-51.168,23.864,2.320,-11.017,40.270,-43.289,-29.375,-51.025,-1.992,12.898,-14.046,-24.585,-43.481,-32.782,33.882,-18.549
-48.716,28.296,-1.148,-7.198,35.217,-42.371,-24.742,-53.212,6.384,16.214,-20.380,-19.053,-45.462,-35.043,28.913,-20.052
-50.646,31.329,-9.651,-10.146,42.923,-45.635,-36.505,-40.868,1.935,9.347,-23.140,-27.059,-38.093,-29.932,27.745,-14.463
-48.011,29.006,-10.824,-0.746,49.458,-45.696,-31.661,-41.879,2.254,12.570,-21.785,-19.429,-33.766,-37.137,35.507,-14.288
-49.414,35.075,-4.990,12.100,54.876,-42.634,-36.103,-57.760,0.015,17.642,-23.747,-20.379,-38.400,-26.340,32.070,-13.368
-46.385,32.311,-6.524,17.065,46.851,-40.806,-34.325,-51.025,18.784,13.786,-25.182,-9.157,-39.036,-26.758,30.794,-9.491
-44.975,30.094,-15.476,6.200,51.477,-38.185,-34.885,-58.177,23.467,8.845,-19.250,-22.004,-32.843,-18.917,30.855,-10.404
-48.475,30.129,-20.998,21.128,47.027,-42.825,-34.552,-54.797,26.181,8.787,-26.454,-23.154,-31.956,-20.051,29.391,-10.733
-47.885,26.346,-18.150,33.189,46.828,-42.101,-24.951,-61.388,20.015,7.499,-23.224,-26.578,-32.586,-11.498,23.186,-7.916
-48.110,36.464,-19.540,40.422,51.721,-35.192,-24.801,-58.805,26.453,-1.255,-24.956,-25.812,-31.305,-0.500,23.237,-1.680
-42.241,30.793,-19.206,38.546,47.280,-38.211,-25.543,-54.124,27.067,0.977,-29.227,-20.740,-20.397,4.812,26.133,-2.581
-43.506,30.704,-25.390,28.406,45.633,-40.606,-28.550,-60.086,22.556,0.791,-32.607,-29.295,-19.466,-3.722,20.727,3.657
-49.557,29.373,-22.977,39.318,42.194,-43.628,-24.571,-61.869,30.152,-5.806,-27.813,-30.571,-21.245,-3.558,14.012,-0.814
-41.713,30.699,-28.091,39.982,43.530,-40.639,-18.973,-57.604,23.835,-6.363,-19.870,-28.584,-12.934,-3.503,13.675,0.474
-34.659,20.470,-30.871,40.476,46.171,-44.052,-16.745,-57.320,24.577,-12.276,-20.803,-28.065,-10.603,4.136,8.452,-0.915
-33.339,17.806,-25.147,40.571,47.404,-31.600,-27.899,-48.567,35.825,-8.951,-19.878,-25.996,-6.416,3.373,7.704,-5.963
-33.827,17.829,-36.178,51.069,37.361,-30.398,-28.489,-41.264,34.380,-9.726,-26.445,-32.223,-4.700,8.561,3.808,-3.975
-36.697,28.275,-39.320,45.416,43.119,-29.552,-29.625,-49.391,44.120,-17.546,-23.298,-28.201,-4.391,11.127,6.180,-1.395
-30.107,29.416,-40.065,37.587,28.414,-26.482,-31.722,-45.379,40.272,-14.153,-17.075,-24.643,-5.835,13.754,3.348,-9.155
-27.510,27.172,-44.091,38.455,28.216,-27.238,-30.445,-37.419,38.682,-19.401,-21.086,-26.900,-8.965,14.772,2.412,-4.976
-28.598,19.573,-45.477,33.680,28.999,-22.653,-27.759,-42.230,40.039,-18.977,-20.076,-25.299,-3.701,9.736,-4.482,2.814
-21.940,30.115,-42.906,44.178,25.692,-24.768,-27.116,-43.950,39.847,-18.793,-19.620,-23.662,-0.273,15.724,-1.126,2.073
-23.989,25.665,-39.049,49.172,22.907,-25.866,-31.260,-42.711,42.939,-25.943,-22.482,-16.186,-2.222,14.879,-2.511,3.193
-20.407,20.777,-40.172,49.031,20.432,-20.298,-27.315,-37.896,43.957,-26.150,-24.821,-22.374,5.287,5.470,1.144,7.152
-16.795,18.547,-57.933,53.313,20.844,-15.599,-24.488,-27.369,46.119,-23.830,-20.145,-22.411,9.427,12.155,-5.950,15.054
-2.453,23.058,-54.079,48.733,15.563,-18.164,-26.775,-26.153,41.291,-20.874,-16.961,-24.647,4.623,15.782,-9.725,19.496
-9.746,23.618,-48.985,48.272,15.240,-5.945,-23.305,-17.479,36.010,-23.998,-21.354,-14.138,4.638,31.276,-9.106,16.665
-6.807,19.997,-43.518,47.316,10.718,-15.980,-25.028,-18.561,33.712,-25.606,-25.749,-16.571,8.017,28.718,-14.336,17.830
-2.577,24.369,-56.330,57.072,16.350,-9.096,-24.287,-13.980,35.157,-26.319,-23.838,-21.682,15.658,27.304,-8.350,23.487
1.760,22.539,-60.526,51.136,5.787,-1.330,-28.238,-10.159,33.450,-26.412,-26.478,-18.662,15.250,24.813,-9.695,21.554
-5.367,19.518,-58.922,47.041,3.971,3.484,-27.954,-5.896,35.065,-30.668,-23.030,-14.580,25.040,24.773,-10.794,20.163
1.447,18.294,-53.375,45.870,5.581,-4.899,-26.918,-5.133,34.226,-31.181,-28.631,-16.121,24.210,24.565,-14.506,29.644
10.950,8.301,-51.292,55.127,1.152,-1.610,-27.670,-10.386,31.062,-21.709,-28.945,-8.222,24.617,31.842,-16.056,26.988
14.656,9.504,-48.860,42.988,1.042,-2.981,-29.222,-6.314,30.123,-22.309,-33.100,-5.532,24.346,35.098,-17.109,23.304
6.622,6.710,-54.388,45.834,-0.945,1.713,-27.287,-9.034,29.172,-22.368,-36.556,-7.923,28.789,35.280,-16.434,20.979
14.271,3.468,-53.417,49.871,0.929,-2.296,-24.134,2.128,27.204,-19.756,-29.433,-6.388,22.824,31.484,-21.988,25.129
12.354,5.886,-44.521,43.958,-4.356,-4.929,-22.294,6.456,21.500,-25.203,-28.924,-13.540,29.334,33.264,-20.938,30.190
14.798,5.720,-54.722,43.295,-4.585,-0.180,-11.171,6.399,18.588,-32.143,-32.145,-17.277,34.255,24.100,-20.769,32.622
18.809,1.774,-54.012,36.536,-11.094,4.326,-20.909,10.546,15.903,-24.430,-29.145,-3.107,37.482,21.039,-23.796,25.299
19.529,-3.960,-62.817,28.110,-14.212,1.324,-22.110,14.029,17.378,-22.481,-30.352,-3.936,31.824,20.447,-20.775,32.252
20.449,-5.295,-66.484,30.563,-9.675,2.839,-30.256,9.024,16.998,-25.080,-29.952,-0.748,29.529,14.391,-23.966,34.969
25.958,-3.746,-67.260,37.515,-5.066,8.110,-12.360,6.569,12.788,-22.242,-24.128,2.716,39.454,22.921,-20.272,34.707
25.003,-14.894,-63.115,28.696,-9.442,12.571,-15.559,16.761,18.075,-24.223,-24.292,6.300,35.611,22.484,-19.160,34.198
23.434,-24.183,-61.741,27.050,-10.235,5.810,-23.930,23.531,11.263,-29.038,-22.384,10.749,38.953,23.448,-19.730,28.247
29.202,-26.508,-60.084,18.447,-7.837,12.511,-20.519,23.378,11.620,-29.717,-30.936,11.318,29.675,19.081,-17.836,33.112
33.234,-25.757,-59.972,34.881,-4.524,12.682,-20.827,25.531,13.896,-22.256,-29.798,11.745,29.590,22.258,-19.485,34.590
34.026,-26.334,-53.685,23.369,-5.394,21.431,-16.087,25.567,5.861,-26.595,-25.527,17.408,36.348,21.439,-20.125,37.318
48.453,-35.160,-50.679,24.469,-7.216,15.525,-15.216,31.645,0.947,-28.287,-24.208,26.473,31.824,26.288,-21.137,36.924
43.096,-36.026,-43.471,12.780,-10.090,12.864,-17.316,36.043,-0.250,-26.840,-25.470,18.816,33.924,25.308,-18.615,31.937
45.374,-36.365,-39.734,13.827,-2.132,12.639,-6.286,31.071,-2.939,-25.044,-21.010,22.069,31.139,25.083,-19.171,31.611
40.013,-37.024,-45.650,2.924,-20.560,10.021,-4.135,33.952,-8.656,-22.544,-14.564,36.997,33.997,17.433,-23.128,32.030
42.665,-37.919,-41.496,5.130,-14.279,10.647,-2.981,29.406,-9.161,-16.448,-22.795,42.943,24.865,24.593,-21.118,25.376
38.857,-30.867,-34.830,1.600,-24.152,16.809,-5.644,32.147,-8.625,-23.568,-23.643,38.390,27.856,34.532,-17.831,31.903
52.571,-31.985,-35.326,2.829,-26.114,17.123,-3.718,37.837,-19.091,-20.185,-13.360,54.115,24.133,29.029,-18.434,26.455
42.874,-43.719,-37.355,-0.789,-27.375,10.305,-1.774,28.933,-22.443,-21.537,-16.785,54.666,22.257,31.638,-12.023,33.142
47.073,-45.068,-48.090,1.067,-30.740,12.092,5.766,30.588,-19.598,-17.147,-8.326,64.044,18.837,34.205,-15.753,31.839
44.397,-39.359,-42.290,-5.097,-22.222,8.304,4.752,40.156,-33.694,-22.309,-11.480,60.564,23.763,30.263,-15.895,34.589
46.053,-38.389,-35.741,-3.631,-27.989,7.995,1.802,37.142,-33.857,-16.713,-12.291,53.325,19.112,22.729,-18.696,27.204
44.802,-41.433,-40.855,-3.309,-25.717,14.476,-1.394,39.038,-37.558,-16.854,-4.738,57.416,18.627,17.704,-23.025,31.599
31.700,-43.531,-29.013,-0.162,-22.830,12.718,7.736,39.461,-39.118,-18.839,2.087,57.333,12.926,17.707,-16.577,23.556
29.055,-45.196,-24.661,-3.149,-28.274,18.406,1.630,27.278,-40.850,-10.227,2.756,60.847,11.378,13.449,-17.132,27.524
29.613,-53.438,-21.595,-3.837,-21.510,17.245,-3.190,32.941,-46.793,-8.028,5.688,64.481,17.873,12.600,-16.945,22.800
27.304,-48.729,-21.799,-4.777,-23.449,26.161,8.763,31.875,-49.755,-14.686,5.542,56.178,17.678,18.959,-24.980,28.856
23.967,-59.551,-0.356,-19.759,-26.293,21.686,11.514,43.485,-50.068,-14.337,7.839,55.293,8.639,15.765,-25.413,27.501
25.108,-60.239,-5.096,-19.498,-29.634,19.983,11.467,33.235,-60.262,-13.364,13.712,54.306,8.228,12.231,-19.206,15.562
27.094,-64.547,-8.005,-9.952,-26.763,27.762,10.276,34.931,-60.368,-22.489,11.145,55.668,4.242,23.428,-18.877,15.678
15.766,-63.327,-0.281,-7.198,-25.230,26.205,9.365,39.217,-57.413,-16.405,11.542,59.039,8.508,24.895,-23.865,15.242
15.123,-59.126,6.692,-18.154,-21.800,25.250,14.819,42.630,-63.435,-17.870,18.667,50.533,2.229,16.315,-18.323,10.367
22.240,-56.553,15.273,-20.891,-22.302,23.518,11.889,47.341,-68.587,-17.778,18.424,56.432,-3.532,12.731,-23.175,15.344
23.981,-49.047,27.471,-7.052,-18.452,26.912,20.964,42.355,-69.411,-21.516,18.540,50.624,-4.040,8.814,-27.453,11.684
21.477,-48.431,19.315,-5.880,-24.387,26.752,27.259,40.462,-61.901,-16.800,26.407,56.356,0.482,10.029,-23.307,11.776
20.946,-52.535,18.405,-11.075,-20.016,28.645,25.714,41.878,-70.682,-9.009,21.186,53.911,-4.690,2.921,-22.335,-3.703
24.554,-46.571,30.402,-12.166,-22.043,23.123,24.424,40.457,-61.641,-13.383,28.268,57.302,-10.179,7.394,-19.068,-0.552
21.344,-48.220,28.259,-14.372,-21.638,26.076,31.077,37.104,-59.188,-14.774,30.115,52.363,-6.668,3.351,-17.782,0.962
20.465,-49.719,27.998,-16.773,-23.240,28.102,34.928,41.218,-63.985,-10.111,34.693,56.836,-8.938,-3.259,-19.955,0.729
6.056,-44.800,36.639,-9.250,-27.695,32.899,34.528,38.605,-69.535,-13.511,37.417,46.707,-9.988,-0.409,-16.582,-9.785
5.197,-41.046,35.407,-14.106,-27.906,35.853,35.442,46.835,-63.122,-2.602,38.645,44.568,-11.813,1.204,-16.779,-0.319
10.522,-42.268,36.983,-17.885,-25.626,37.414,37.727,45.229,-61.311,-10.244,44.411,44.431,-22.210,3.830,-18.810,3.295
3.869,-43.605,44.383,-16.491,-24.158,38.553,41.536,41.922,-58.445,-3.769,45.603,43.460,-25.489,2.210,-21.587,3.071
10.088,-37.640,46.595,-14.715,-28.287,38.764,37.544,36.009,-47.443,-1.175,46.624,39.800,-22.934,0.146,-15.674,-5.651
17.348,-38.461,46.797,-13.298,-20.295,32.318,39.955,34.665,-48.957,-10.495,43.176,45.545,-21.435,-4.488,-11.017,-6.339
18.483,-31.159,38.777,-12.507,-21.715,31.981,36.795,31.463,-47.920,-6.325,52.175,39.271,-26.816,-5.248,-6.548,-9.832
14.890,-39.638,41.151,-25.422,-17.457,24.212,47.627,34.669,-52.792,-5.811,47.838,38.914,-30.635,4.128,-9.499,-11.166
7.685,-31.680,47.313,-12.244,-10.505,26.558,36.893,41.441,-56.249,-3.970,41.303,46.359,-28.052,-0.528,-9.221,-17.124
2.339,-30.059,39.854,-11.215,-15.436,31.789,43.743,34.157,-47.958,2.893,43.650,32.494,-26.658,-12.860,-1.256,-30.966
2.750,-30.399,48.856,-14.671,-20.698,34.481,39.239,26.829,-48.860,7.725,49.300,37.246,-30.565,-9.643,-7.567,-24.233
1.016,-24.118,51.765,-19.436,-19.235,25.694,39.371,21.639,-40.567,-3.897,47.277,27.354,-27.900,-4.923,-9.444,-29.376
-2.248,-14.621,52.874,-26.336,-16.423,25.857,43.913,25.081,-37.131,3.655,49.249,31.000,-27.321,-8.105,-2.691,-37.029
-1.457,-18.785,45.800,-34.130,-14.874,28.540,33.695,35.479,-29.344,4.898,53.161,25.315,-25.553,-13.975,-1.706,-40.248
1.054,-20.253,52.135,-34.548,-19.611,32.460,38.212,37.361,-32.710,7.051,43.249,20.707,-24.678,-25.284,-6.239,-43.280
2.503,-20.054,54.297,-39.795,-13.548,27.661,38.169,34.340,-26.079,10.907,49.127,22.350,-19.361,-23.698,-3.929,-36.091
1.475,-14.070,44.347,-33.935,-13.997,25.861,42.680,30.918,-31.742,12.788,47.877,7.260,-23.665,-21.737,4.445,-38.706
-4.433,-11.410,52.160,-31.753,-12.195,35.464,39.810,23.299,-36.290,14.559,48.875,15.799,-20.239,-32.753,2.871,-34.785
7.175,-9.040,48.724,-29.950,-4.387,35.544,37.428,27.870,-34.617,17.393,41.016,13.817,-25.692,-22.989,1.942,-41.482
1.752,-3.589,49.174,-28.092,-8.877,34.282,40.660,22.687,-33.343,13.637,41.015,16.040,-23.637,-30.398,8.712,-44.597
-4.606,-0.530,41.263,-23.882,-16.727,34.955,43.355,21.991,-22.718,14.347,36.630,10.690,-22.490,-34.517,3.111,-41.114
0.583,4.810,42.708,-13.655,-10.936,34.982,42.327,18.737,-16.954,20.377,46.081,11.205,-22.374,-29.417,3.856,-40.083
-0.229,11.229,38.779,-18.030,-10.920,26.581,34.026,17.771,-19.558,21.598,48.530,10.160,-21.131,-25.874,5.535,-39.238
1.788,9.461,40.205,-16.986,-10.998,35.658,24.455,18.017,-22.365,19.617,40.149,5.421,-26.307,-30.549,4.435,-43.730
-1.658,4.081,37.327,-24.024,-15.807,34.227,20.381,14.048,-27.062,28.320,36.451,10.095,-31.950,-23.483,7.039,-38.498
1.160,6.073,37.260,-28.049,-11.890,32.365,22.130,15.882,-17.713,18.264,31.255,5.114,-28.667,-37.680,7.209,-38.572
-2.918,8.107,35.704,-23.577,-7.064,34.527,20.354,9.979,-17.063,25.945,26.971,-4.075,-23.402,-41.521,4.688,-38.409
1.977,3.066,22.700,-34.460,-4.022,35.582,18.525,5.696,-17.399,26.537,26.503,-4.035,-21.832,-35.240,3.838,-34.694
3.227,8.002,26.864,-30.458,-7.314,37.445,15.993,10.004,-17.432,31.056,24.670,-1.960,-27.916,-34.321,4.965,-32.234
-6.141,7.521,23.158,-27.351,-9.696,38.656,14.416,13.752,-10.283,35.286,23.572,-9.712,-30.450,-37.992,10.828,-33.179
-7.418,14.576,14.447,-34.566,-9.163,34.248,9.844,7.278,-9.855,33.856,29.280,-2.329,-30.855,-44.493,6.652,-37.764
-7.919,21.111,18.750,-28.815,-12.120,23.003,7.069,6.835,-11.309,32.042,26.129,-6.609,-32.336,-35.719,8.315,-36.115
-22.184,17.829,15.614,-28.474,-16.050,20.903,8.669,11.854,-3.878,32.904,18.164,-12.973,-31.435,-47.207,18.215,-44.497
-21.494,25.052,17.710,-32.793,-18.998,21.176,11.286,4.446,2.834,32.435,6.066,-12.534,-30.427,-48.800,17.657,-38.285
-19.229,27.481,11.378,-30.951,-16.115,13.598,-1.611,7.820,10.951,37.741,3.994,-13.118,-31.791,-51.092,16.361,-22.056
-18.729,22.913,6.664,-35.246,-14.616,19.341,-4.428,3.695,5.522,32.644,8.141,-11.880,-27.453,-47.715,20.473,-28.148
-20.040,21.649,2.453,-31.638,-9.198,14.045,-4.045,7.148,5.396,35.222,-4.879,-17.272,-22.203,-45.028,20.435,-25.588
-12.375,31.238,-2.346,-37.670,0.050,13.954,1.248,1.898,11.877,31.395,-9.043,-16.244,-33.114,-51.289,19.524,-28.852
-27.991,34.636,0.228,-35.814,-2.271,6.712,-1.934,17.049,6.064,38.330,-11.348,-23.626,-32.039,-44.738,20.711,-23.766
-27.566,36.993,-0.596,-32.060,0.897,8.592,-4.645,7.776,16.192,35.166,-7.856,-21.235,-37.295,-51.950,20.883,-17.723
-28.318,30.642,-4.869,-39.904,-3.142,2.026,-10.205,5.521,13.447,28.447,-2.819,-15.109,-35.515,-46.313,21.333,-22.730
-32.011,34.505,-8.457,-33.746,-1.173,4.167,-14.072,2.650,13.604,28.373,-9.554,-13.360,-34.488,-43.509,22.800,-26.424
-30.116,30.247,-7.007,-40.253,-0.817,-6.786,-16.670,6.927,13.086,30.168,-5.559,-19.173,-28.541,-44.628,28.757,-29.680
-25.257,25.529,-4.401,-30.386,10.089,-4.860,-21.910,-3.478,22.602,30.622,-7.828,-16.455,-26.222,-55.090,29.715,-17.074
-25.865,13.838,-8.878,-26.366,12.408,3.164,-32.702,1.434,24.396,33.432,-10.017,-11.123,-24.443,-52.034,33.308,-22.008
-31.233,20.961,-12.282,-21.626,13.870,-3.663,-34.871,-0.643,22.884,36.893,-12.194,-15.956,-22.261,-47.067,35.653,-19.228
-40.387,29.019,-11.364,-32.403,10.301,-6.733,-37.048,-6.355,23.470,35.029,-7.858,-11.702,-26.650,-55.325,34.833,-21.246
-37.860,23.752,-19.192,-32.588,13.534,-11.300,-30.714,-6.844,23.552,31.709,-10.048,-21.688,-17.648,-49.548,27.647,-22.980
-44.724,23.121,-20.988,-32.174,15.005,-20.800,-35.331,-7.995,30.984,32.415,-15.946,-24.411,-21.886,-48.332,29.671,-19.709
-46.162,25.728,-11.652,-34.022,15.414,-17.293,-35.162,-14.338,42.837,37.558,-20.090,-23.702,-25.647,-42.610,34.855,-17.598
-45.471,18.483,-25.111,-34.739,11.191,-23.719,-48.577,-14.787,32.994,31.472,-23.517,-15.375,-32.108,-45.556,32.271,-13.038
-41.272,16.834,-30.837,-27.774,11.011,-24.699,-54.927,-7.522,36.242,31.810,-24.953,-13.280,-31.258,-52.104,27.222,-12.271
-40.825,15.660,-22.908,-33.032,19.817,-29.334,-44.687,-8.640,27.224,31.322,-22.392,-18.590,-24.827,-53.674,26.531,-6.199
-49.608,17.568,-20.305,-31.957,19.659,-28.090,-47.978,-8.154,21.260,29.967,-31.812,-26.047,-22.808,-42.340,34.291,-8.844
-47.407,23.704,-28.779,-32.805,26.295,-25.030,-52.603,-8.740,24.204,31.888,-25.606,-22.274,-19.763,-46.668,36.730,-7.476
-43.139,23.418,-37.402,-26.964,27.570,-24.745,-56.931,-14.857,31.966,33.532,-27.844,-24.644,-15.830,-43.073,42.047,-0.307
-40.137,19.192,-29.260,-18.390,30.426,-28.879,-57.974,-26.765,37.257,28.984,-31.699,-22.248,-18.775,-32.665,39.433,-9.945
-40.887,25.068,-26.319,-19.339,30.822,-28.483,-48.378,-27.971,31.705,21.403,-28.498,-20.660,-21.443,-34.824,33.584,-4.069
-39.399,20.306,-28.223,-11.216,35.393,-29.428,-54.161,-39.626,28.827,23.700,-28.505,-19.431,-23.531,-35.437,26.424,-2.801
-38.506,14.216,-20.727,-10.950,29.843,-33.408,-54.931,-33.556,26.473,22.315,-28.264,-23.612,-21.029,-26.728,29.617,0.622
-35.214,18.380,-37.890,-10.080,25.157,-35.199,-56.890,-30.741,26.636,19.519,-34.644,-18.259,-21.072,-29.415,28.957,1.278
-29.622,17.456,-38.688,-8.249,34.601,-41.499,-50.821,-26.306,26.978,18.331,-35.932,-20.051,-18.124,-19.399,28.302,5.469
-35.760,12.058,-20.141,-7.230,34.728,-48.007,-47.659,-29.226,22.238,20.675,-31.787,-20.775,-18.838,-23.602,21.597,4.320
-40.800,13.468,-33.097,2.198,37.363,-44.520,-50.818,-38.488,22.700,13.360,-32.183,-18.897,-16.730,-18.256,21.425,4.854
-49.557,10.573,-29.057,-5.660,37.003,-46.070,-48.816,-30.942,24.928,5.911,-23.883,-16.656,-16.292,-17.722,15.519,2.893
-38.746,9.081,-24.266,1.319,28.456,-42.909,-48.208,-36.278,21.165,9.205,-34.095,-17.465,-20.582,-14.966,11.996,-2.520
-36.101,6.773,-28.755,13.009,36.163,-35.200,-53.995,-38.735,26.275,4.126,-30.602,-20.164,-20.799,-9.987,15.494,3.593
-32.959,16.281,-35.916,11.955,33.172,-41.973,-46.626,-44.120,25.519,3.128,-28.429,-27.001,-15.461,-7.679,16.779,0.859
-34.300,19.546,-34.042,12.834,32.582,-44.304,-48.685,-42.826,31.557,1.987,-27.998,-27.703,-14.635,-3.532,21.227,0.577
-35.941,13.104,-31.468,13.255,31.824,-49.978,-48.034,-46.858,38.467,-0.186,-32.200,-18.914,-12.296,-2.592,21.830,3.014
-29.662,12.208,-37.029,17.538,35.036,-46.854,-46.218,-47.077,25.652,5.714,-31.841,-15.908,-15.211,-2.293,18.611,4.580
-37.989,10.728,-42.269,27.446,35.906,-44.407,-44.778,-40.316,15.277,0.803,-35.752,-20.651,-11.180,6.853,20.060,6.193
-37.316,7.901,-38.069,33.491,26.680,-53.542,-46.079,-34.029,18.167,-0.878,-34.533,-15.375,-10.004,8.546,14.015,6.302
-35.375,7.145,-41.807,24.036,26.796,-46.354,-41.438,-41.950,21.655,-7.562,-30.965,-15.438,-5.452,13.632,6.851,13.634
-26.450,-2.293,-31.013,38.209,24.752,-41.027,-41.098,-35.377,21.991,-16.744,-33.556,-17.507,-7.693,17.126,4.949,15.148
-29.549,2.657,-36.530,36.876,23.693,-38.475,-38.456,-34.848,16.242,-11.257,-30.505,-9.679,-4.884,17.417,10.862,13.434
-32.102,9.219,-36.932,32.360,24.968,-37.901,-27.544,-31.543,11.631,-15.389,-30.113,-11.163,-0.408,22.006,15.169,3.805
-22.811,7.095,-27.808,36.570,23.736,-44.160,-29.074,-29.160,11.585,-21.375,-30.972,-9.579,2.221,26.164,13.312,12.863
-26.547,3.765,-23.648,36.127,20.217,-41.446,-31.914,-32.199,12.155,-20.811,-21.194,-13.942,-2.287,29.219,12.808,8.851
-30.117,2.787,-28.276,50.136,25.617,-42.742,-28.938,-34.673,16.816,-22.602,-21.542,-10.324,10.603,24.418,10.541,4.343
-26.425,0.986,-28.501,45.865,30.566,-44.331,-19.764,-38.161,18.516,-25.072,-16.417,-16.109,10.247,27.617,0.427,18.767
-30.313,-6.609,-32.909,44.016,26.043,-46.057,-24.558,-40.600,26.086,-20.273,-26.311,-12.524,10.389,36.631,-0.828,17.060
-23.073,-6.399,-33.233,51.468,23.787,-42.931,-22.745,-25.837,28.300,-23.629,-34.776,-9.186,5.409,31.533,-7.453,24.518
-15.769,0.315,-33.214,51.266,22.425,-33.142,-19.691,-14.963,14.415,-27.462,-29.821,-13.945,19.217,32.187,-8.194,30.225
-17.611,-11.025,-39.560,46.221,15.672,-37.521,-13.849,-12.999,13.944,-38.899,-21.738,-11.849,17.824,30.565,-9.262,22.057
-15.923,2.704,-42.049,41.602,16.063,-27.795,-17.803,-19.139,23.780,-43.866,-22.569,-12.884,19.764,32.926,-13.754,18.688
-14.557,-7.989,-35.156,35.445,11.636,-22.896,-9.707,-19.209,16.547,-44.560,-28.865,-15.730,18.288,31.254,-16.596,13.557
-9.842,-6.587,-31.729,41.724,7.858,-20.382,-10.745,-18.167,15.619,-37.260,-18.744,-9.211,24.662,29.533,-13.695,17.088
-0.624,-3.733,-37.350,41.518,-0.666,-17.778,-18.837,-28.809,19.176,-32.564,-19.557,-6.160,25.311,39.944,-19.678,17.055
-1.247,-5.986,-46.452,41.853,-0.685,-16.216,-11.606,-19.627,29.467,-33.327,-23.994,-4.382,27.245,41.584,-25.453,13.963
-4.729,-6.377,-38.873,43.928,0.943,-16.954,-11.815,-7.229,22.623,-38.004,-26.504,-4.460,32.046,39.357,-23.302,16.239
-4.624,-14.374,-34.215,43.853,-0.763,-13.805,-7.488,-10.027,21.085,-30.597,-23.070,-4.058,35.571,47.693,-30.421,17.002
-0.146,-11.479,-34.998,44.768,-4.322,-5.640,-3.976,-6.915,18.487,-34.397,-17.226,-7.116,32.359,45.534,-23.855,22.326
3.417,-9.133,-28.755,46.447,2.622,-7.806,-2.677,6.696,22.396,-40.400,-15.558,-0.793,37.170,47.045,-26.670,21.635
5.647,-9.017,-38.309,50.668,-17.169,1.884,1.324,8.697,18.394,-36.532,-22.383,0.073,35.148,52.788,-32.112,25.075
11.392,-11.426,-38.658,45.416,-19.038,1.375,5.132,14.735,20.775,-38.907,-19.399,5.003,39.676,48.899,-35.007,20.773
17.221,-14.749,-29.469,42.437,-10.946,3.516,2.261,4.856,14.546,-37.730,-17.970,7.534,42.476,39.577,-34.951,13.659
26.129,-13.157,-39.474,52.648,-18.291,4.741,2.862,6.903,15.719,-35.670,-18.618,6.021,39.106,52.821,-36.218,19.204
24.089,-17.188,-28.214,41.635,-23.345,12.560,9.273,7.970,14.699,-34.741,-20.201,6.776,34.910,55.146,-35.900,23.448
21.932,-18.664,-24.934,40.785,-25.807,9.157,13.957,12.446,6.460,-43.725,-20.602,8.918,36.591,52.195,-33.053,18.873
27.731,-11.195,-38.578,31.693,-32.578,17.103,6.473,16.949,2.780,-42.285,-15.460,3.332,44.757,48.341,-28.901,25.700
33.548,-14.086,-30.571,33.741,-27.599,16.811,13.825,15.605,-6.308,-41.767,-15.401,9.031,47.973,51.117,-36.150,22.045
38.118,-19.841,-26.239,30.922,-29.193,15.097,6.530,17.289,-4.991,-34.558,-11.664,9.784,43.011,51.641,-35.532,29.233
38.300,-17.610,-23.076,24.192,-36.690,15.813,8.792,24.158,1.775,-33.271,-13.576,9.539,48.802,48.512,-36.468,26.158
36.982,-28.857,-13.385,18.188,-42.566,17.899,9.088,22.169,5.740,-38.409,-7.917,9.069,48.531,49.211,-39.954,27.000
39.464,-36.580,-23.695,18.801,-44.976,16.150,17.348,23.240,1.618,-32.069,-13.847,14.579,43.990,40.409,-33.838,28.767
41.059,-30.026,-27.546,9.675,-44.261,25.139,14.669,28.892,1.276,-30.639,-9.953,23.377,45.255,24.901,-33.607,21.739
42.459,-25.126,-23.127,11.075,-44.594,24.312,16.969,36.220,1.494,-30.462,-6.310,20.742,45.467,21.198,-33.808,17.134
31.739,-34.796,-30.818,12.778,-52.317,22.990,17.784,45.019,-1.041,-21.799,1.637,17.503,42.449,22.661,-30.758,19.960
36.918,-32.851,-26.641,10.586,-46.876,22.711,13.898,51.210,-7.321,-18.561,0.530,18.959,40.525,28.722,-28.269,17.322
50.303,-34.375,-28.937,8.028,-45.112,22.141,17.374,56.480,-3.818,-17.900,1.369,22.246,35.060,27.666,-24.255,15.285
50.156,-33.699,-29.838,-8.084,-47.905,27.352,13.254,59.284,-5.364,-24.782,-1.445,25.987,42.297,25.606,-26.584,15.300
51.217,-34.042,-20.202,-1.264,-45.126,28.298,11.825,58.620,-8.090,-18.489,0.033,34.206,42.851,13.184,-34.408,21.337
49.675,-34.636,-21.403,-3.333,-48.788,29.025,20.265,60.901,-16.302,-20.514,-3.808,36.599,30.087,10.296,-33.599,26.914
54.985,-40.387,-24.727,-6.360,-49.730,33.627,22.559,62.431,-15.424,-13.156,0.258,31.403,27.755,11.031,-39.049,30.273
51.506,-42.315,-19.793,-6.709,-44.375,36.999,23.244,70.882,-28.126,-13.260,3.618,39.729,27.644,11.229,-38.363,19.140
48.575,-38.555,-16.824,-12.016,-53.265,36.368,17.199,62.305,-26.444,-14.649,-0.142,40.766,28.825,7.211,-41.630,15.890
49.080,-31.432,-12.591,-5.721,-53.637,31.762,20.054,71.994,-26.247,-16.918,0.551,53.452,31.907,8.876,-31.446,17.757
50.103,-39.032,-3.502,-8.546,-51.470,39.749,24.689,63.658,-23.955,-10.194,-3.363,44.029,24.047,10.737,-35.686,14.795
48.793,-39.367,-9.076,-20.211,-42.543,38.925,28.308,60.415,-18.071,-9.917,4.452,40.064,27.061,9.498,-31.199,19.185
54.150,-39.873,-2.712,-24.727,-45.163,39.760,23.807,56.882,-32.933,0.190,5.045,45.344,19.087,0.421,-36.430,23.731
48.143,-43.744,-6.501,-28.892,-42.821,33.020,20.320,66.343,-26.169,-5.049,-1.133,45.128,23.595,-0.947,-29.379,25.766
43.313,-48.121,-7.847,-29.366,-39.670,35.304,25.042,63.896,-19.277,2.735,5.656,44.612,19.984,-3.158,-28.143,25.658
43.850,-54.632,-4.714,-23.318,-43.865,28.134,22.421,59.624,-22.697,5.383,1.590,40.066,17.654,0.716,-22.174,22.095
35.994,-50.385,-0.921,-28.111,-41.138,19.891,20.001,64.924,-26.278,2.956,0.471,49.096,9.914,0.611,-21.630,25.843
42.956,-48.964,2.790,-30.544,-38.525,27.871,29.010,65.393,-30.992,5.225,2.602,54.574,7.683,-11.692,-22.715,19.497
41.834,-48.203,1.838,-29.051,-40.743,29.654,25.411,59.767,-29.230,-0.544,6.398,51.556,9.422,-1.622,-24.983,6.567
31.429,-51.077,-0.203,-35.211,-37.738,25.138,24.793,54.138,-29.823,3.969,8.926,48.015,6.068,-3.713,-23.774,13.093
34.568,-51.236,3.293,-30.295,-43.432,25.046,23.293,53.188,-34.257,9.162,12.037,50.762,2.647,-3.773,-21.690,18.529
30.852,-52.238,13.058,-27.008,-36.050,28.474,18.884,49.526,-33.331,12.889,11.502,54.708,0.669,-14.576,-18.085,8.594
28.716,-49.473,15.869,-34.539,-31.697,23.573,15.430,55.430,-40.643,19.641,6.091,55.432,3.040,-7.889,-16.048,3.118
23.762,-51.283,20.561,-33.809,-33.199,21.819,19.292,57.044,-43.543,11.887,6.715,54.543,-0.990,-14.671,-15.519,1.840
20.760,-49.608,21.174,-33.478,-33.056,22.668,21.460,54.420,-48.537,12.806,10.457,49.092,-4.990,-20.972,-17.875,-2.177
17.821,-50.217,26.559,-39.620,-30.328,19.960,22.036,42.962,-51.173,16.772,15.590,50.427,-10.550,-20.245,-20.010,4.140
17.631,-53.975,27.027,-42.119,-29.716,23.765,21.920,42.752,-55.115,14.237,12.004,54.111,-3.219,-18.591,-14.827,-0.112
8.855,-52.469,24.024,-49.699,-34.953,19.305,26.444,50.502,-48.788,20.669,13.828,48.700,-11.937,-19.198,-13.538,5.617
-3.566,-46.181,20.787,-52.740,-31.871,23.223,27.659,50.879,-58.182,18.706,15.226,46.409,-10.832,-13.048,-3.541,-1.060
-10.588,-41.575,30.398,-43.374,-27.970,25.920,28.172,45.397,-61.392,13.215,19.971,52.244,-16.056,-22.423,-2.657,-1.293
-12.124,-34.754,42.700,-33.618,-22.312,26.025,20.720,47.138,-62.624,17.012,11.836,49.342,-15.419,-31.719,-1.210,-4.142
-5.199,-37.216,43.605,-43.877,-18.800,28.961,21.876,44.021,-62.003,10.660,16.429,47.525,-13.989,-31.074,3.862,-8.534
-4.472,-37.177,35.750,-45.120,-12.594,15.367,20.689,38.244,-54.518,11.980,22.577,44.021,-18.978,-20.611,2.812,-4.862
-13.531,-35.805,49.802,-34.816,-7.053,15.385,20.946,28.016,-55.139,13.074,17.050,43.645,-19.659,-27.429,4.000,-9.778
-8.529,-33.919,48.646,-44.213,-7.228,28.361,21.337,32.202,-47.682,15.093,17.216,44.715,-20.018,-32.295,4.617,-10.997
-7.796,-36.983,37.440,-50.351,-13.294,29.504,16.895,34.483,-40.012,13.853,21.969,40.960,-25.452,-35.595,6.519,-16.086
-14.732,-31.279,35.041,-50.174,-7.396,17.872,23.515,28.622,-43.682,14.723,19.735,38.395,-24.183,-35.108,7.814,-14.365
-13.989,-28.216,42.581,-42.997,-5.266,15.296,17.550,27.344,-39.325,20.188,27.251,34.456,-25.526,-39.799,-0.693,-13.705
-21.512,-29.392,41.410,-47.917,-3.943,8.952,20.833,27.406,-30.490,15.507,25.118,30.066,-29.428,-33.906,0.405,-17.754
-27.488,-27.079,45.219,-49.984,-4.757,10.386,27.024,20.767,-26.297,15.326,23.837,33.710,-37.011,-31.600,-0.817,-21.769
-25.678,-18.797,57.169,-50.361,-8.093,9.096,21.908,21.341,-28.868,23.915,17.936,32.668,-34.249,-34.113,0.698,-16.064
-25.803,-15.297,54.378,-46.169,-0.128,5.918,33.330,19.509,-38.059,24.132,23.655,34.767,-41.229,-38.508,6.971,-23.216
-32.005,-18.952,58.785,-40.145,3.518,6.263,29.831,22.722,-36.753,24.598,26.356,27.865,-37.347,-37.652,8.595,-12.418
-28.634,-13.208,58.597,-48.002,8.844,14.432,23.229,26.824,-23.843,18.193,27.326,21.964,-38.050,-32.693,8.698,-17.017
-28.430,-5.563,56.201,-43.375,0.571,8.665,25.011,6.863,-21.696,10.198,31.341,22.032,-38.338,-28.866,14.005,-24.635
-34.918,-3.618,50.617,-49.408,10.031,-1.819,27.152,2.001,-10.011,10.253,24.505,10.254,-44.170,-21.077,4.984,-25.552
-40.615,-10.903,62.204,-43.719,11.434,0.966,21.889,9.196,-16.234,13.848,21.424,5.159,-43.574,-26.566,6.349,-31.369
-34.472,-5.579,49.026,-49.734,5.329,3.165,17.498,10.801,-13.111,10.430,13.226,-0.294,-46.961,-23.110,13.151,-33.420
-35.022,-4.186,49.041,-40.842,8.315,-3.090,18.951,7.923,-12.933,13.168,19.705,1.009,-41.394,-28.150,15.597,-38.686
-42.236,-1.368,45.002,-30.748,4.893,0.364,14.046,1.451,-20.163,14.730,23.195,-4.735,-38.029,-20.380,13.712,-36.452
-37.295,-3.758,44.989,-26.344,3.592,-7.532,11.856,4.812,-16.210,14.360,29.997,-11.487,-36.171,-24.358,15.361,-40.526
-43.275,12.610,46.410,-28.345,6.693,-2.201,11.766,-1.623,-6.832,22.527,27.211,-0.231,-35.421,-12.479,18.358,-36.683
-41.116,14.814,38.163,-17.454,11.346,-6.621,17.916,0.404,-7.926,19.613,16.203,-4.409,-28.471,-20.508,18.573,-45.585
-37.793,23.666,44.354,-16.018,15.349,-7.359,15.126,-8.034,-4.731,18.172,18.786,-0.500,-34.551,-22.679,23.731,-37.617
-40.850,26.801,44.742,-12.784,11.073,-9.360,8.205,-6.635,4.655,24.692,18.845,-13.473,-42.953,-27.639,19.526,-28.778
-44.113,23.407,45.487,-12.092,6.375,-11.428,17.186,-18.895,5.890,19.797,19.479,-17.621,-34.951,-24.123,19.795,-28.370
-39.018,23.872,38.550,-12.959,10.935,-12.440,9.584,-8.189,-5.610,21.958,14.131,-21.632,-28.672,-17.708,15.406,-35.711
-52.145,28.162,39.408,-15.808,14.026,-11.927,8.358,-2.423,3.570,17.844,12.542,-22.368,-32.717,-19.383,9.926,-36.967
-44.603,28.591,29.794,-6.874,11.338,-13.737,10.459,-0.766,13.930,19.347,13.538,-14.706,-30.570,-28.276,14.832,-35.163
-43.993,25.440,29.559,3.297,19.711,-15.626,8.810,-1.270,16.583,18.672,12.215,-11.919,-28.245,-31.493,13.649,-40.313
-47.595,33.185,28.772,-0.322,18.318,-7.338,7.590,-13.643,16.858,18.543,0.769,-20.833,-27.596,-26.627,17.595,-43.736
-45.650,32.917,18.717,4.433,16.571,-6.994,-3.184,-11.904,20.967,21.864,-8.929,-26.878,-28.281,-26.403,15.468,-38.279
-43.334,38.448,26.496,12.549,8.729,-7.197,0.117,-13.142,21.865,18.966,-4.431,-34.158,-22.880,-21.207,13.112,-41.374
-43.398,39.076,19.389,7.529,10.408,-10.233,-2.009,-16.525,24.933,17.224,2.108,-37.887,-24.051,-29.978,19.302,-35.261
-43.334,42.509,15.773,1.456,2.013,-15.205,-7.820,-16.680,37.875,13.969,-8.092,-36.069,-23.167,-27.899,19.997,-32.050
-49.941,38.302,14.062,6.890,9.480,-13.751,-8.838,-1.374,39.478,17.163,-3.589,-35.326,-18.927,-32.200,18.478,-25.043
-50.244,40.651,6.163,11.406,15.974,-15.032,-15.013,-6.747,28.205,23.635,-7.686,-27.882,-13.775,-37.371,17.577,-24.375
-42.417,34.491,3.129,9.521,18.390,-8.756,-11.601,-20.633,28.490,22.418,-13.347,-29.979,-16.763,-33.549,13.128,-33.504
-37.607,33.609,-3.619,11.101,20.608,-5.558,-3.923,-21.902,35.747,25.623,-17.219,-34.919,-14.184,-36.755,14.774,-31.431
-45.067,28.202,-4.640,4.471,27.348,-7.987,-14.019,-19.916,39.493,25.385,-20.497,-25.330,-16.956,-38.913,20.674,-25.405
-42.147,28.996,-1.000,4.507,23.127,-6.527,-16.740,-16.901,38.770,23.319,-20.949,-32.183,-15.758,-38.285,17.699,-20.112
-50.226,31.192,-3.185,3.239,20.570,-16.379,-17.226,-19.360,35.673,24.461,-31.800,-43.247,-12.602,-36.483,11.391,-20.609
-52.029,35.998,-12.317,7.485,23.397,-19.435,-16.711,-13.562,47.304,22.670,-32.348,-39.214,-13.761,-28.479,10.884,-19.574
-42.745,33.967,-6.209,2.982,17.225,-26.502,-17.923,-5.391,45.121,18.661,-28.137,-41.491,-12.622,-31.548,24.914,-13.533
-37.688,31.738,-14.082,6.866,11.240,-27.639,-24.817,-16.593,48.083,14.363,-28.244,-43.531,-9.149,-36.369,19.603,-6.888
-40.782,32.088,-28.482,-5.224,22.991,-21.096,-25.926,-20.244,51.073,15.605,-30.481,-45.005,-11.137,-29.019,18.268,-14.877
-38.370,27.059,-22.812,-0.760,19.888,-23.516,-28.288,-20.171,54.517,20.063,-34.534,-42.765,-1.473,-28.424,17.356,-17.144
-31.878,32.157,-23.838,13.007,19.664,-25.321,-37.097,-19.423,55.725,20.685,-38.646,-45.003,4.328,-27.860,24.217,-8.288
-35.955,37.354,-34.476,8.709,18.449,-13.890,-31.837,-26.918,47.670,17.619,-41.431,-41.093,3.938,-25.170,25.060,-6.872
-41.024,38.896,-36.091,3.972,22.282,-12.254,-37.775,-26.836,50.852,15.398,-37.723,-45.689,5.241,-23.400,23.982,-2.610
-36.744,34.639,-40.478,15.329,20.188,-14.141,-46.824,-29.745,51.384,14.736,-39.817,-42.021,6.491,-22.803,23.086,-0.057
-39.148,28.418,-35.884,17.596,17.788,-15.144,-43.820,-22.017,56.876,12.305,-44.826,-42.069,10.560,-27.103,20.200,4.558
-37.003,25.190,-40.697,10.670,20.413,-19.734,-41.075,-30.974,50.396,7.265,-48.682,-41.815,6.317,-19.277,21.711,5.136
-34.017,31.495,-28.426,7.377,19.034,-15.573,-50.063,-30.585,53.086,10.540,-44.782,-43.317,8.795,-17.391,25.202,5.549
-34.668,40.844,-36.771,10.504,24.476,-30.967,-51.072,-29.186,47.771,9.783,-50.829,-36.737,17.516,-10.153,18.910,4.531
-34.090,32.521,-44.348,10.968,25.992,-29.803,-49.785,-29.394,55.484,7.390,-46.813,-33.107,15.799,-13.835,19.225,3.554
-33.932,29.456,-37.805,15.218,23.570,-22.222,-49.511,-34.455,44.556,-0.519,-44.793,-32.368,9.262,-15.243,20.356,7.309
-36.044,24.728,-39.987,16.349,23.304,-33.384,-53.058,-33.382,44.799,7.871,-42.315,-28.976,15.555,-10.772,17.756,19.804
-29.541,15.807,-45.816,9.067,18.896,-32.044,-56.446,-23.966,42.609,9.494,-47.069,-27.395,10.535,-16.206,12.110,17.964
-37.311,19.206,-49.611,7.889,24.137,-30.568,-49.382,-17.705,38.662,3.303,-46.039,-20.065,6.237,-18.372,18.444,20.054
-35.141,10.947,-45.726,2.342,16.095,-36.867,-48.627,-19.344,44.086,1.294,-41.742,-20.487,9.628,-18.682,12.580,16.039
-25.651,10.230,-46.633,11.952,15.403,-30.782,-48.593,-23.965,42.487,1.914,-39.386,-15.539,14.055,-15.745,11.702,24.450
-19.861,6.303,-50.068,13.561,17.882,-28.624,-49.621,-16.874,39.357,7.652,-45.951,-12.650,13.206,-12.524,10.593,22.733
-23.022,4.826,-39.461,6.441,16.900,-33.951,-42.511,-23.143,39.063,9.182,-46.637,-19.602,17.101,-8.900,12.712,26.079
-23.519,-0.758,-41.503,17.692,18.150,-32.243,-46.005,-30.302,35.403,3.016,-49.119,-14.242,20.901,-10.679,10.904,32.779
-19.892,6.098,-48.547,18.066,19.567,-29.462,-50.923,-12.056,31.616,3.947,-42.051,-8.685,17.393,-19.254,15.434,26.006
-17.934,-4.762,-45.941,18.225,13.698,-26.285,-45.969,-11.611,25.448,3.231,-43.771,-6.967,23.237,-2.350,5.664,32.592
-21.174,2.896,-44.910,18.784,15.385,-21.577,-36.112,-14.702,29.296,0.261,-47.004,-18.882,25.151,-3.587,10.304,29.665
-20.659,1.930,-36.571,23.303,23.649,-24.023,-48.425,-10.100,27.854,-12.547,-47.353,-12.303,22.070,0.055,7.767,31.598
-17.360,1.703,-37.289,33.918,15.247,-27.186,-43.825,-18.642,22.339,-19.877,-46.812,-13.692,26.245,-11.034,14.551,40.591
-13.137,3.335,-38.334,24.779,16.149,-23.114,-38.757,-19.749,23.288,-21.641,-49.091,-11.198,29.944,-11.489,4.411,37.399
-5.355,-7.167,-46.808,18.466,28.006,-25.156,-37.619,-19.375,19.165,-22.705,-44.028,-4.804,30.162,-10.199,-0.075,33.228
-7.107,-5.232,-39.973,25.791,29.242,-24.537,-35.510,-12.598,13.834,-16.691,-44.283,-7.378,26.367,-9.287,-3.124,38.810
-2.644,-11.934,-42.116,23.453,20.706,-26.837,-31.481,-22.284,17.715,-18.745,-42.483,-8.354,31.521,-10.685,-4.900,41.014
-7.263,-10.937,-44.570,32.184,9.393,-19.880,-42.661,-9.884,14.925,-18.808,-37.718,1.500,27.149,-8.757,-6.074,40.688
2.444,-10.995,-45.350,30.325,4.849,-14.974,-28.384,-13.298,10.540,-25.854,-37.712,-0.682,30.638,-0.462,-8.873,38.443
0.063,-3.423,-42.779,32.203,3.800,-17.160,-20.398,1.078,12.597,-25.971,-33.400,1.371,26.454,0.219,-9.171,40.018
4.316,-9.381,-51.406,35.697,8.706,-9.072,-20.552,-5.863,4.266,-35.201,-37.284,-0.666,24.968,9.244,-10.239,35.538
2.933,-14.478,-50.498,33.243,7.962,-6.195,-20.413,-6.626,0.099,-23.360,-37.490,-0.472,25.747,5.237,-16.077,27.247
2.645,-13.612,-45.788,32.577,8.108,-15.766,-16.168,-8.228,-3.171,-31.873,-26.244,6.301,23.326,9.739,-16.160,23.469
