Fp1,Fp2,F7,F3,Fz,F4,F8,T3,C3,Cz,C4,T4,P3,Pz,P4,O1
-4.375,15.272,35.412,7.486,-17.748,-12.787,-2.128,39.866,34.278,-11.060,20.184,-23.713,5.547,-0.748,10.467,6.423
-12.163,20.501,50.419,6.811,-16.447,-11.313,-3.526,56.267,48.381,-6.877,18.123,-20.111,11.731,-5.561,17.515,4.776
-14.488,8.689,61.412,9.500,-14.271,-8.029,10.172,69.877,59.715,3.172,18.839,-20.134,8.108,7.166,20.200,8.402
-19.723,12.406,32.246,15.468,-14.803,-0.147,19.793,36.614,31.127,8.926,12.088,-23.150,10.865,10.474,9.229,14.055
-24.077,16.288,31.797,13.642,-13.725,-3.834,18.674,35.240,30.066,8.059,11.671,-21.234,21.416,12.559,2.123,14.097
-30.384,20.929,25.644,10.131,-5.546,-1.151,21.041,27.056,23.595,7.366,14.636,-27.320,17.676,17.135,3.064,18.827
-30.922,9.334,13.942,7.660,-9.143,3.795,21.079,15.866,13.200,15.442,3.660,-15.051,30.737,14.287,4.335,14.608
-26.626,4.164,1.712,0.965,-4.190,1.992,23.982,2.753,1.250,9.658,8.197,-14.183,32.877,20.392,-2.113,18.113
-30.329,1.611,-8.446,-1.116,-3.887,0.262,19.221,-9.126,-7.892,5.090,13.401,-22.707,29.901,18.076,-6.485,16.212
-39.055,-6.354,-13.883,-7.913,0.498,0.025,16.290,-16.155,-13.558,5.108,3.324,-23.260,35.649,11.617,-11.288,12.082
-25.936,-8.945,-13.902,-7.821,-4.585,-3.767,19.465,-15.921,-13.301,3.368,-1.485,-16.653,37.447,9.606,-9.883,6.819
-20.988,-14.700,-7.314,-4.182,5.402,5.178,23.535,-9.816,-7.292,0.127,-3.949,-4.944,41.964,3.823,-11.683,9.944
-31.743,-14.216,3.580,-11.922,8.186,-0.300,18.489,2.997,3.380,-10.116,-4.392,-7.436,28.510,6.288,-8.450,11.222
-27.190,-15.417,15.359,-18.109,3.258,6.563,21.533,18.211,16.232,-12.321,-5.572,5.566,20.078,5.697,-9.612,15.752
-9.598,-10.692,28.088,-16.882,12.790,6.193,17.715,31.456,28.153,-4.298,-6.723,10.644,15.566,-1.001,-6.946,15.219
-8.396,-7.964,37.224,-15.099,6.884,-2.799,17.054,40.778,36.705,-8.725,-6.637,7.885,9.015,-3.031,-12.046,4.041
6.643,-5.213,39.739,-27.159,8.796,-5.668,18.011,44.270,39.067,-7.917,-8.096,11.557,8.423,-9.262,-7.730,8.718
9.045,-3.654,35.242,-28.052,-0.682,-12.948,10.961,39.586,34.684,-19.536,-9.402,13.130,11.864,-11.763,-1.602,-4.608
3.335,-13.988,25.769,-36.050,2.371,-13.359,10.539,29.160,25.531,-21.624,-11.969,10.493,12.894,-13.761,0.077,-9.795
6.931,-8.258,12.390,-37.470,-0.485,-10.744,-5.585,14.833,12.135,-22.034,-8.630,14.369,3.847,-8.125,6.666,-9.698
3.472,2.718,-2.259,-32.590,1.357,-17.385,-2.339,-2.416,-1.437,-18.591,-5.104,12.174,-2.379,-17.467,14.980,-13.591
13.365,6.998,-14.376,-33.194,-1.460,-24.732,-10.956,-16.142,-12.555,-21.462,1.339,4.730,-3.723,-19.218,9.813,-13.250
11.543,5.538,-20.625,-34.423,-7.554,-26.892,-17.607,-24.087,-19.967,-28.373,4.007,6.597,-6.747,-10.469,10.422,-15.557
6.894,10.045,-21.300,-26.969,-18.308,-24.823,-10.002,-24.552,-21.392,-33.986,2.701,4.787,-6.556,-14.487,12.073,-15.579
7.138,19.912,-16.660,-20.577,-14.827,-20.886,-15.301,-19.109,-16.236,-27.268,11.047,0.451,-4.891,-3.960,20.011,-19.955
6.309,26.340,-6.327,-14.276,-18.651,-18.769,-15.887,-8.907,-6.481,-24.805,21.071,-6.940,-8.372,-3.648,19.860,-19.669
-6.945,20.114,5.202,-13.440,-18.772,-15.494,-12.106,4.415,5.256,-16.272,21.161,-3.704,-1.201,2.128,21.154,-21.630
-4.852,13.731,15.188,-6.053,-23.302,-20.889,-1.490,15.411,14.306,-26.676,16.817,-9.561,-5.500,6.716,29.337,-10.795
-8.168,23.172,21.451,1.928,-22.798,-17.863,-2.762,23.299,21.014,-14.892,16.922,-18.126,-3.045,5.394,23.533,-4.688
-10.320,21.649,21.962,1.328,-23.032,-15.301,-6.657,23.109,21.128,-8.469,26.175,-22.638,2.549,2.956,19.407,5.277
-6.180,28.453,16.012,3.688,-20.369,-7.039,7.641,17.006,16.136,0.379,26.719,-14.951,8.246,6.751,12.884,9.818
-14.560,26.658,4.796,9.844,-15.049,-7.669,4.820,3.488,4.540,3.215,22.828,-23.845,5.786,20.037,13.052,13.422
-21.907,17.425,-9.592,10.768,-13.640,-5.004,8.994,-11.934,-8.759,3.439,21.127,-19.423,10.991,25.515,14.901,13.668
-20.707,16.576,-23.555,7.784,-10.365,-1.220,10.628,-27.242,-22.788,-0.250,20.848,-10.773,15.346,28.755,11.755,14.981
-18.538,15.884,-33.752,5.729,-10.899,6.012,15.934,-39.565,-32.238,1.845,20.764,-14.424,15.274,23.226,3.728,19.359
-16.752,5.611,-39.379,0.591,-4.675,7.022,16.995,-44.729,-37.035,3.502,13.927,-14.771,27.525,22.808,-0.781,21.185
-16.430,3.717,-38.516,0.878,-2.741,4.125,31.093,-42.224,-36.321,9.978,9.669,-5.194,29.992,24.512,-3.884,16.075
-15.480,-0.568,-29.962,-10.770,0.934,0.432,25.860,-34.866,-29.229,9.536,9.734,-13.329,29.794,16.898,-12.613,19.384
-13.656,-4.244,-18.224,-14.481,6.149,4.985,22.638,-21.769,-17.421,4.262,6.011,-11.977,39.368,11.892,-22.177,17.000
-10.765,-11.922,-5.158,-13.948,16.079,3.830,27.085,-6.633,-5.422,5.026,6.397,-6.199,34.764,14.808,-22.307,10.680
-9.510,-18.112,6.277,-27.724,12.585,6.307,22.756,6.337,5.609,6.427,-0.973,-4.927,31.549,13.682,-19.973,7.483
-7.835,-12.213,13.321,-24.177,16.202,2.176,17.399,14.779,12.030,0.875,-9.973,5.309,27.215,12.390,-20.651,1.717
-4.826,-12.108,14.751,-30.750,15.060,-3.640,17.129,15.716,12.602,-8.045,-8.963,-4.424,27.440,11.485,-13.539,-4.767
-6.419,-3.231,10.462,-32.723,14.583,-9.435,15.790,10.862,7.612,-16.007,-10.762,0.832,32.805,5.791,-10.203,-12.310
-1.650,-10.119,0.091,-28.846,14.494,-11.096,11.847,-0.464,-0.789,-16.305,-11.756,4.447,23.318,1.980,-7.229,-12.988
-5.593,-8.155,-11.640,-30.745,8.836,-13.076,1.818,-14.699,-12.585,-20.553,-3.514,8.914,17.544,0.408,-6.185,-11.766
2.539,-8.374,-23.010,-35.554,15.744,-16.115,3.339,-26.188,-22.851,-20.683,-4.722,4.955,13.937,-2.254,0.797,-14.752
8.913,-14.710,-30.373,-33.050,19.112,-24.442,2.794,-34.019,-29.959,-19.788,-0.663,5.160,7.999,-7.433,4.185,-12.677
15.121,-9.261,-32.162,-33.207,8.952,-18.993,-4.225,-36.268,-31.185,-25.307,-4.407,9.407,5.718,-8.241,8.190,-18.483
14.810,-4.214,-27.274,-29.520,8.090,-18.008,-9.598,-31.150,-26.813,-27.131,-6.374,5.074,-8.183,-0.363,16.247,-21.310
16.049,11.316,-17.187,-19.794,5.042,-20.453,-14.223,-19.246,-16.638,-29.981,-1.598,2.418,-6.551,-0.654,15.384,-27.563
11.828,6.289,-2.904,-20.923,6.925,-19.955,-23.677,-3.432,-2.956,-27.649,0.064,-3.974,-10.400,1.739,15.747,-20.195
8.718,11.278,11.727,-22.926,-2.850,-29.134,-27.837,12.949,10.920,-12.626,3.412,-5.534,-12.457,-6.765,15.407,-13.161
16.368,20.598,23.739,-18.546,-10.474,-22.831,-15.373,26.981,23.824,-15.350,4.091,-2.946,-10.255,0.431,19.725,-10.582
7.316,26.390,31.282,-11.944,-4.608,-22.298,-7.123,35.009,30.077,-13.323,8.135,-6.256,-4.936,2.872,27.187,-3.007
1.101,25.341,33.205,-4.125,-9.421,-23.033,-9.702,35.025,30.680,-13.621,13.228,-14.196,1.608,8.770,25.381,-9.733
-3.305,13.825,27.582,-1.763,-9.572,-17.659,-2.380,29.195,25.776,-7.875,12.136,-13.576,-1.337,13.063,25.727,1.046
-12.734,11.699,17.328,-11.361,-10.818,-24.358,-3.030,19.048,16.161,-8.308,11.686,-13.362,3.303,15.420,24.207,-4.813
-5.644,24.091,5.564,-5.801,-12.702,-15.141,12.678,5.745,4.486,-0.429,12.867,-25.581,5.702,11.035,21.262,9.129
-14.201,14.368,-5.939,5.819,-17.880,-7.413,16.946,-6.566,-5.348,-12.623,9.773,-20.244,10.221,7.174,15.600,2.022
-19.445,9.925,-12.901,7.748,-16.948,-9.148,12.527,-15.003,-12.754,-4.834,14.876,-21.340,7.861,22.388,17.236,-0.264
-19.805,6.365,-13.317,3.691,-13.894,0.038,22.384,-16.227,-15.134,-1.930,13.161,-26.235,15.523,24.256,19.032,6.534
-21.295,6.484,-8.755,3.783,-5.212,9.022,25.508,-11.275,-10.113,-3.341,12.497,-28.109,15.761,28.356,11.029,8.316
-32.152,-3.243,1.602,0.802,-5.292,6.436,28.073,0.171,-0.103,2.726,10.024,-29.890,20.586,23.680,8.507,14.459
-28.293,1.063,50.153,-0.318,-7.215,10.601,27.259,54.337,45.821,-4.197,7.673,-26.725,19.596,23.801,2.643,14.791
-25.371,-6.104,63.213,3.251,-0.552,14.220,32.429,68.185,59.107,1.329,3.221,-18.900,20.678,28.639,0.539,12.517
-17.167,-10.346,71.919,-1.098,0.228,12.966,30.607,79.382,67.781,4.323,0.207,-15.069,22.616,23.716,-1.578,18.650
-20.009,-23.719,40.180,-0.704,6.656,14.592,27.155,44.996,37.572,-4.915,-2.548,-9.757,20.210,16.961,-12.403,21.277
-23.094,-16.896,38.469,-7.862,9.997,16.827,21.584,41.988,35.307,-0.469,-3.990,-1.348,24.121,12.379,-12.908,14.918
-17.801,-18.743,29.323,-10.126,17.077,18.722,29.061,31.870,27.347,-9.499,-11.124,-2.607,21.972,11.989,-15.296,9.966
-16.643,-23.680,16.701,-8.919,15.836,16.648,22.936,17.313,14.749,-10.115,-11.192,-5.233,23.203,11.290,-9.680,6.146
-4.138,-16.718,1.891,-10.967,18.876,7.282,14.319,1.163,0.550,-15.359,-4.307,-7.336,20.292,11.154,-11.283,1.754
-6.896,-26.879,-11.697,-23.201,15.410,9.555,17.970,-13.918,-11.060,-19.614,-7.346,-6.179,14.047,4.240,-4.600,3.427
-4.461,-31.341,-19.306,-25.977,15.593,6.190,7.599,-22.010,-19.962,-21.628,-11.155,2.349,15.773,-1.782,-4.656,-0.696
7.408,-24.869,-21.793,-21.326,17.980,0.361,10.398,-23.894,-22.690,-26.036,-17.926,5.915,10.799,0.890,-8.651,-2.950
9.310,-20.266,-17.890,-18.702,18.880,-7.628,2.578,-19.325,-18.864,-22.670,-14.965,14.705,0.546,-6.363,2.222,-12.370
19.126,-17.021,-8.460,-25.235,16.369,-8.295,6.321,-9.818,-10.332,-29.306,-10.942,7.173,-0.496,-7.582,7.984,-14.719
16.191,-10.308,3.058,-18.555,13.415,-14.007,0.611,3.264,1.198,-24.957,-6.281,7.307,-13.714,0.059,4.186,-9.173
18.729,-10.162,13.181,-23.352,10.898,-18.171,-1.340,15.646,11.094,-23.088,-0.772,11.329,-10.047,-1.061,9.466,-17.894
21.409,-4.968,20.933,-28.617,-2.706,-12.650,1.679,23.653,18.505,-25.460,-0.823,9.020,-14.484,-7.425,9.721,-14.080
22.009,5.927,22.423,-10.778,-8.693,-11.980,7.406,24.539,20.416,-23.550,4.823,-1.769,-13.989,0.067,16.402,-13.700
12.601,4.400,17.717,-8.859,-9.589,-18.380,5.479,19.216,16.518,-22.959,7.910,-4.535,-18.047,6.027,20.601,-12.370
16.551,3.684,7.622,-3.202,-4.615,-23.100,5.842,7.836,6.095,-15.062,10.802,-2.799,-10.704,10.829,26.424,-9.600
8.434,1.036,-5.497,-3.321,-13.238,-16.488,4.739,-7.163,-7.277,-16.331,13.980,-10.507,-5.651,14.572,24.376,-4.130
7.692,2.532,-19.930,1.077,-16.034,-18.652,6.531,-23.589,-21.535,-4.765,16.466,2.316,-2.857,14.557,23.807,-5.445
7.779,8.985,-31.841,-0.841,-14.693,-15.425,6.990,-36.512,-32.580,0.256,17.483,-8.590,2.222,11.878,22.969,2.404
3.678,8.882,-38.381,2.586,-18.857,-10.623,7.226,-43.800,-38.778,-0.565,22.010,-15.938,4.694,16.033,25.695,2.350
4.187,9.942,-37.420,0.362,-17.325,-4.527,17.695,-42.823,-38.281,-4.955,22.943,-19.750,4.915,20.006,17.798,4.981
5.759,5.446,-30.088,8.557,-10.045,4.113,13.532,-35.630,-32.652,0.744,25.259,-19.495,10.745,14.165,17.797,5.014
-8.920,4.966,-19.938,10.459,-10.282,-2.762,24.045,-23.349,-21.775,6.377,22.317,-18.644,12.442,16.606,16.990,13.267
-3.206,1.784,-6.434,11.197,-7.016,6.465,35.060,-8.754,-9.218,17.214,21.154,-23.822,25.066,18.440,13.826,22.996
-4.617,-4.600,5.359,3.810,-1.965,6.946,31.019,4.559,2.931,18.606,20.599,-17.470,21.538,20.044,9.883,23.744
-8.726,-13.183,13.409,4.258,-2.799,7.885,35.637,13.100,11.236,14.766,16.627,-18.501,24.777,21.660,8.179,24.056
-18.173,-12.384,15.537,1.565,1.715,10.608,35.159,16.417,13.696,10.277,6.071,-15.029,22.508,17.117,-0.959,20.666
-17.305,-22.645,11.817,-2.317,12.011,6.900,34.433,11.698,10.219,5.629,9.240,-17.914,16.862,19.732,-0.364,23.548
-8.493,-23.180,3.170,-9.786,11.965,10.913,30.031,1.533,2.489,8.979,3.689,-8.860,21.290,14.229,8.467,20.851
-7.419,-27.407,-8.819,-14.229,14.309,7.565,24.097,-11.333,-8.568,6.466,0.203,-7.124,17.863,9.676,-1.452,12.010
-2.820,-25.705,-20.602,-16.852,12.708,10.835,28.807,-24.145,-20.672,4.919,2.714,-6.333,28.766,11.230,-7.778,10.695
-4.066,-22.525,-28.692,-26.346,9.276,12.532,25.856,-33.108,-28.499,1.903,-4.134,2.494,25.835,11.061,-13.203,9.223
7.056,-18.736,-31.803,-32.218,9.987,17.841,12.147,-35.811,-31.334,-6.720,-4.770,12.638,18.612,14.983,-16.238,0.138
5.505,-27.549,-28.275,-29.918,9.281,6.970,16.600,-31.808,-28.006,-2.868,-5.043,12.985,14.378,7.327,-13.239,0.357
7.863,-25.046,-18.896,-26.422,14.138,3.877,8.135,-20.760,-19.145,-6.192,-7.304,8.561,15.102,2.710,-5.489,-2.251
8.874,-23.842,-4.821,-27.595,19.076,1.563,13.002,-6.624,-5.776,-9.955,-4.976,12.296,5.588,-3.560,-2.950,-1.781
15.785,-24.126,10.413,-20.722,17.853,1.307,-3.655,9.682,7.808,-15.044,-4.932,12.447,6.360,-10.232,1.883,-11.507
23.389,-18.838,22.724,-25.619,15.932,-1.652,-4.487,23.563,20.744,-19.330,-4.948,15.403,-1.565,-10.838,7.608,-14.062
25.456,-18.566,30.894,-24.093,8.659,0.653,-7.292,32.957,29.692,-21.170,-2.430,7.731,5.099,-10.735,6.075,-22.241
17.217,-8.369,32.949,-27.258,10.385,-4.277,-5.525,35.954,31.864,-16.190,-2.011,5.068,-5.166,-7.790,9.442,-17.753
16.512,-9.911,29.010,-29.023,7.934,-8.907,2.260,31.018,27.107,-24.800,1.710,-2.628,-12.003,-13.249,12.207,-17.645
12.824,-5.365,19.483,-22.788,6.871,-12.076,-5.445,20.699,18.901,-19.099,-1.716,-9.858,-9.683,-10.623,12.291,-10.373
20.376,1.718,7.200,-22.458,5.253,-7.851,1.691,7.417,6.768,-20.691,6.961,-12.252,-13.060,-18.919,15.628,-10.394
15.708,2.304,-4.267,-10.210,2.817,-19.256,4.065,-4.375,-3.764,-19.697,13.884,-9.346,-16.640,-8.226,15.654,-0.157
14.109,1.420,-12.108,-21.305,-1.253,-10.224,2.353,-13.691,-12.211,-11.197,7.791,-5.931,-12.754,2.152,23.021,3.390
6.951,2.519,-14.760,-15.494,-10.613,-15.827,6.481,-16.009,-14.718,-2.958,8.230,-12.519,-2.644,4.892,30.298,11.431
4.820,2.848,-10.347,-0.069,-11.458,-6.771,3.515,-10.745,-10.987,5.013,11.737,-15.697,-5.677,6.259,26.006,11.746
15.755,10.052,-1.855,-4.356,-12.764,-0.699,7.362,-0.968,-2.021,-3.772,18.325,-17.243,-3.682,11.430,28.047,15.578
9.829,6.733,10.633,5.165,-16.373,2.695,9.652,12.284,9.492,1.241,20.773,-16.904,5.491,12.797,25.335,17.007
-1.577,4.498,24.434,12.263,-12.996,7.259,14.905,26.790,23.166,1.190,18.320,-22.458,10.977,10.777,25.385,18.368
-12.637,-1.655,34.887,5.546,-13.170,8.591,20.215,37.562,33.104,12.042,19.818,-15.752,10.984,22.984,14.733,24.658
-4.240,8.288,40.616,7.629,-10.453,4.739,22.628,43.311,38.795,13.348,17.014,-12.410,12.975,23.458,12.913,18.217
-5.669,6.804,39.043,6.803,-9.317,11.044,28.428,42.340,37.137,14.490,18.791,-13.571,20.647,22.115,9.130,24.983
-8.715,1.813,31.343,4.192,-6.107,16.930,38.768,34.522,29.897,18.880,19.385,-11.072,20.668,24.605,9.780,25.341
-8.122,-10.574,18.350,3.771,2.147,11.171,25.323,21.070,18.207,17.552,16.086,-13.353,30.229,25.308,6.953,32.882
-6.412,-12.315,3.766,5.688,5.129,9.381,30.194,4.600,4.138,12.674,11.363,-7.831,31.616,26.899,-5.230,30.228
-2.635,-11.442,-9.756,-1.929,4.793,11.926,27.805,-9.950,-9.150,8.910,5.819,-12.674,27.384,20.486,-7.098,29.244
-4.289,-15.364,-19.270,-7.002,7.421,14.597,24.914,-21.222,-17.608,8.777,2.238,-2.524,30.976,11.823,-6.889,22.548
-8.093,-22.983,-22.340,-8.702,2.480,10.159,29.677,-24.285,-20.603,-2.590,2.314,12.091,35.296,12.761,-14.459,20.933
-3.024,-22.034,-18.829,-9.148,10.960,6.569,23.010,-21.445,-18.382,-6.698,3.849,5.789,30.435,3.090,-12.703,18.904
-4.727,-17.887,-10.487,-15.472,13.167,3.449,27.516,-13.059,-10.803,-11.032,-0.851,13.136,26.878,1.151,-12.302,13.376
-3.034,-7.209,35.656,-19.170,10.413,3.619,20.313,38.809,35.127,-10.757,-2.905,16.865,23.076,3.116,-8.676,11.488
0.300,-12.517,46.825,-24.334,10.063,1.958,7.911,51.485,45.233,-22.243,-4.286,20.938,22.212,2.611,-10.759,5.631
4.970,-17.159,55.373,-22.481,9.984,-4.168,-0.337,61.008,53.415,-20.310,-5.862,18.258,19.633,8.278,-12.444,2.599
1.375,-12.158,22.645,-22.421,11.948,1.455,-11.617,25.243,22.320,-23.446,-6.254,23.090,14.623,1.336,-13.651,0.873
11.225,-10.433,19.023,-27.005,10.981,-4.241,-5.242,21.736,19.056,-22.932,-5.866,16.974,10.665,-3.052,-1.599,2.035
8.088,-10.405,9.668,-25.006,12.305,-10.409,-11.913,9.845,10.188,-22.065,-7.886,11.003,1.956,-3.048,6.376,2.011
13.116,-3.680,-3.543,-26.714,8.901,-9.162,-12.627,-4.117,-2.766,-18.572,-2.618,4.809,3.603,-3.830,10.105,-5.288
19.889,-1.761,-18.441,-29.086,3.870,-14.255,-11.908,-21.141,-16.712,-16.121,3.788,-3.753,-0.621,-7.639,5.143,0.876
9.349,6.795,-31.284,-28.058,9.730,-13.196,-12.378,-34.395,-29.071,-21.831,5.368,3.786,-7.608,-2.322,3.467,-3.035
2.692,-0.027,-38.745,-20.867,3.170,-17.404,-9.693,-42.489,-35.738,-22.269,10.720,-3.123,-7.931,-0.075,4.373,5.152
6.745,-3.812,-40.142,-14.229,-3.651,-15.128,-12.726,-44.019,-36.916,-18.854,12.272,-2.709,-10.438,-2.499,11.998,1.051
6.046,8.583,-34.910,-9.523,-6.869,-15.253,-8.168,-37.774,-31.840,-25.112,13.684,-11.709,-12.879,3.400,12.623,9.011
7.338,10.978,-24.938,-0.537,-8.636,-19.728,-6.612,-26.525,-21.922,-17.591,15.148,-6.821,-3.123,4.956,13.108,7.407
1.330,16.594,-11.128,-1.360,-6.367,-15.420,-5.155,-12.081,-9.535,-10.086,18.585,-18.517,-2.107,3.003,20.303,9.214
-3.137,10.548,1.302,7.926,-12.368,-10.444,-1.752,1.295,2.571,-10.261,18.331,-26.843,-5.946,4.389,20.494,9.900
-9.890,15.048,11.264,15.359,-10.936,-11.372,10.248,11.489,10.780,-3.443,18.538,-25.659,-1.922,17.340,18.482,15.057
-9.490,12.012,14.550,21.295,-5.017,-8.370,3.629,15.352,13.777,2.379,19.485,-26.068,4.502,17.616,18.744,11.191
-10.009,7.452,12.000,24.185,-9.073,-3.980,15.130,13.061,11.758,12.819,18.304,-24.897,6.732,24.309,17.413,13.236
-16.699,4.250,3.814,24.553,-2.866,-4.805,22.868,4.661,4.924,5.207,17.898,-25.251,12.589,20.233,10.864,18.087
-13.736,-1.160,-7.420,24.471,-3.107,7.249,18.623,-8.516,-6.814,11.283,17.064,-22.878,14.730,18.438,9.148,17.576
-6.355,-3.973,-18.983,19.965,-10.008,13.270,21.736,-21.938,-17.853,20.382,12.902,-18.297,21.234,19.684,0.805,21.153
-14.485,-6.134,-28.770,11.269,-2.943,10.907,20.269,-32.022,-26.863,13.165,11.582,-16.065,16.351,15.044,-0.359,20.786
-9.662,-0.840,-32.456,11.305,1.615,10.178,20.728,-37.216,-30.752,14.343,7.638,-13.150,14.264,25.950,-6.618,20.725
-7.356,-8.654,-29.744,4.608,6.534,17.026,26.054,-34.643,-28.939,11.495,5.047,-8.348,20.435,20.220,-5.738,20.114
-6.510,-4.898,-21.825,4.666,9.792,10.699,20.926,-24.516,-20.765,14.864,-3.049,-3.135,16.998,18.521,-14.369,22.352
-3.493,-9.111,-8.534,0.574,7.858,12.414,14.655,-9.975,-8.465,8.876,-2.816,-5.628,18.015,13.046,-12.222,19.636
-2.651,-9.250,5.950,-1.602,15.591,4.949,16.754,7.204,6.614,0.768,-0.545,0.904,15.855,9.907,-19.068,11.584
-0.889,-7.526,20.054,-5.544,18.603,7.940,14.183,21.752,19.656,4.602,-13.441,8.880,14.245,9.325,-13.815,3.345
4.609,-11.359,29.611,-9.828,9.295,7.335,14.546,31.289,28.360,-5.865,-11.782,6.566,9.483,12.792,-9.816,4.158
3.576,-13.411,32.572,-7.494,8.527,10.037,11.158,35.739,31.305,-12.851,-14.948,15.386,11.398,4.233,-9.226,3.504
10.964,-13.683,30.045,-9.838,1.619,4.552,9.527,32.794,28.033,-12.436,-20.179,9.297,8.702,-2.246,-2.897,4.813
25.382,-12.979,22.108,-10.834,8.183,2.657,-1.080,22.992,20.030,-17.981,-16.237,0.328,2.972,-1.463,-8.407,-0.652
26.010,-15.630,9.853,-15.273,1.260,-4.329,-3.392,9.690,8.926,-20.298,-12.690,4.294,-1.036,-4.333,-3.021,-7.004
30.249,-14.878,-1.901,-17.624,-1.087,-8.764,-8.203,-2.576,-1.487,-18.716,-12.769,10.607,-5.405,-10.396,2.018,-6.245
30.574,-13.557,-11.198,-22.556,6.624,-12.112,-12.138,-12.212,-10.352,-23.593,-14.177,10.250,-12.274,-6.984,8.799,-7.893
34.779,-7.900,-15.051,-23.956,1.818,-16.624,-9.498,-16.125,-13.111,-16.974,-8.440,7.610,-18.209,-6.901,8.818,-6.555
31.077,-10.402,-12.119,-19.747,-0.904,-9.886,-13.325,-14.172,-11.486,-18.004,-1.628,1.742,-15.258,-3.427,13.806,-5.578
31.910,-7.866,-3.686,-8.686,-1.598,-9.953,-15.993,-4.550,-3.687,-14.199,-1.080,-1.084,-9.815,-5.444,15.880,-11.126
24.698,-7.368,8.624,-5.728,-6.232,-2.620,-11.198,9.395,8.444,-19.399,-0.872,-4.587,-14.830,4.746,20.157,-12.568
20.915,-1.448,22.013,-7.280,-6.469,-10.253,-12.397,24.201,21.337,-19.594,6.776,-12.940,-26.585,3.440,26.861,-6.782
15.800,2.834,33.327,-7.130,-9.917,-10.290,-7.868,35.927,30.994,-16.178,8.133,-18.757,-24.005,3.388,22.848,-3.462
20.317,4.160,39.343,5.417,-8.420,-9.003,-5.527,43.439,37.576,-13.170,7.775,-18.969,-14.348,10.830,20.594,1.019
16.549,4.615,38.869,13.713,-8.485,-3.923,-6.469,42.869,37.498,-3.029,11.985,-14.892,-11.543,23.422,27.180,2.270
12.365,-3.218,32.412,10.355,-12.240,-8.456,-3.046,36.052,31.207,6.366,8.950,-14.633,-11.482,25.657,25.337,17.106
-2.195,9.225,21.034,9.676,-13.934,1.915,3.447,23.115,19.295,11.789,10.361,-20.590,-7.960,22.734,17.208,16.614
-1.224,13.120,6.099,20.704,-17.573,-0.706,-2.287,7.201,5.255,9.253,9.600,-20.171,-6.961,24.787,14.344,11.257
-9.519,5.174,-8.074,17.583,-6.470,-0.315,6.491,-8.126,-7.167,16.359,10.598,-23.839,-0.484,22.051,11.795,10.827
-11.875,4.332,-18.096,13.170,-5.822,1.327,5.477,-19.899,-16.741,15.381,5.387,-23.665,7.431,27.509,13.237,20.874
-16.425,-1.302,-22.887,4.023,0.324,8.449,11.713,-25.368,-21.739,12.554,5.376,-17.235,8.232,23.109,4.234,25.298
-19.567,0.151,-21.535,14.634,3.947,14.753,25.390,-23.121,-19.306,10.857,7.366,-25.898,20.704,29.877,-0.534,20.130
-20.823,-3.800,-13.575,9.067,0.221,17.806,21.326,-13.898,-11.601,13.116,3.524,-29.577,15.600,19.203,-5.629,20.778
-17.413,-5.007,-2.196,13.635,6.172,18.409,22.008,-1.488,-1.453,13.275,-2.087,-17.240,15.700,16.844,-11.977,24.278
-15.664,-9.297,10.043,11.170,11.754,11.684,25.390,11.413,8.775,-0.226,-1.029,-17.894,19.196,23.158,-15.078,20.569
-7.591,-18.459,18.645,2.942,7.748,17.260,23.163,21.153,18.097,9.423,-7.772,-11.794,16.030,26.291,-13.910,17.703
-3.110,-20.319,22.754,-0.023,14.249,5.038,14.044,25.434,22.017,2.510,-8.487,-5.632,11.374,23.310,-10.289,15.457
-1.079,-28.284,20.891,1.535,19.343,6.479,23.143,22.373,19.832,11.554,-8.270,-10.353,12.582,21.521,-13.540,5.695
9.188,-26.885,12.521,0.519,21.934,6.139,13.955,13.564,11.630,2.043,-11.237,-4.169,8.795,12.083,-8.915,4.334
6.131,-22.918,-0.345,-5.656,21.324,4.889,16.885,-0.641,-0.521,-0.866,-12.702,-6.106,-0.163,12.450,-10.842,4.427
12.403,-21.521,-14.879,6.032,22.449,-1.405,14.771,-16.969,-14.124,-8.358,-11.973,2.056,5.765,8.210,-6.229,-0.096
15.941,-20.623,-27.523,3.523,25.013,-2.065,15.245,-31.149,-27.302,-14.176,-13.316,1.918,1.601,-3.119,-0.605,-0.955
18.413,-19.874,-36.980,-3.415,23.236,-11.779,4.042,-40.357,-35.647,-16.321,-15.612,1.583,-4.232,-8.766,0.262,-10.168
26.551,-24.920,-39.468,-9.984,15.057,-18.589,-4.762,-43.431,-38.473,-13.967,-9.030,1.634,-13.568,-4.659,-1.012,-5.149
23.386,-19.433,-36.198,-3.676,10.023,-18.314,-8.242,-38.849,-34.284,-18.877,-4.404,-0.011,-18.840,-2.967,2.622,-11.163
18.193,-11.867,-27.111,-8.286,12.546,-19.540,-5.880,-27.842,-25.053,-20.477,-10.584,-3.906,-16.951,-6.646,7.121,-10.706
14.872,-4.692,21.874,-7.403,9.126,-17.707,-8.610,25.308,21.177,-15.689,-3.868,1.391,-18.779,-11.255,10.490,-14.848
11.543,-14.014,34.307,-4.742,8.591,-22.866,-1.077,39.295,34.586,-13.427,1.508,1.169,-21.144,-15.413,9.536,-16.898
11.980,-11.554,44.434,6.316,0.133,-28.680,-9.122,50.986,42.773,-11.631,3.403,2.982,-21.110,-14.674,10.724,-14.396
19.127,-0.271,14.004,9.280,-2.013,-24.373,-3.922,16.765,13.792,-13.623,2.432,-4.025,-20.380,-4.533,11.490,-16.391
11.598,2.209,13.893,-1.606,-3.932,-28.076,0.942,15.401,12.632,-10.044,9.590,-5.299,-22.219,-0.503,21.854,-15.645
10.871,2.905,6.172,10.797,-7.229,-25.411,8.438,7.259,5.713,-9.482,11.891,-1.875,-10.483,-3.242,21.363,-10.595
4.278,2.052,-5.077,5.234,-14.127,-28.571,13.247,-4.328,-4.826,-1.540,18.853,-2.531,-14.308,-3.137,17.585,-1.491
1.754,-0.842,-16.547,13.259,-8.663,-21.791,18.606,-17.640,-16.041,3.583,20.706,-4.545,-15.290,5.334,20.002,3.065
-7.111,3.551,-26.544,18.358,-13.073,-17.285,13.827,-29.325,-25.590,7.381,14.393,-15.635,-8.371,6.960,15.490,7.880
-11.915,4.694,-32.210,22.310,-9.891,-14.168,11.999,-35.680,-30.704,2.778,16.753,-11.923,-2.219,7.306,16.378,13.644
-8.830,4.847,-31.587,23.468,-7.003,-21.331,17.886,-35.258,-30.030,12.868,16.727,-13.734,-4.960,11.139,17.153,14.842
-10.382,3.809,-24.417,25.965,-2.501,-15.991,23.482,-26.834,-23.538,16.730,17.385,-20.347,-4.764,16.280,15.143,17.625
-10.708,-0.383,-11.495,18.956,-4.413,-4.120,30.565,-12.731,-11.392,14.607,20.158,-18.660,11.069,20.802,7.617,22.979
-17.649,-0.091,3.194,10.741,-6.223,6.501,28.023,3.075,2.578,7.303,12.422,-16.130,9.274,24.600,13.946,18.488
-20.396,-0.601,17.292,8.081,-5.299,2.698,25.517,19.571,16.271,5.822,7.401,-13.839,17.479,20.388,1.097,20.244
-16.121,-7.733,28.018,10.647,11.870,3.966,31.776,31.038,26.182,0.890,1.813,-7.512,14.354,24.694,-5.601,12.562
-14.030,-18.868,32.988,7.193,11.591,5.722,31.415,36.900,31.368,-7.878,-1.606,-7.521,17.874,22.305,-11.072,7.624
-11.812,-14.907,31.487,0.694,10.483,7.796,31.007,35.269,29.101,7.548,-5.728,-11.537,19.979,20.900,-9.364,14.956
-7.424,-23.113,25.099,-7.474,13.250,8.077,26.092,26.394,22.013,-6.089,-12.217,8.476,16.126,15.336,-12.570,14.883
-2.913,-16.741,13.789,-13.261,19.367,4.910,28.935,13.634,11.075,-1.298,-11.951,4.850,17.633,12.850,-9.361,16.269
1.917,-19.304,1.905,-13.583,17.204,-0.652,27.108,-0.105,-0.814,-1.949,-13.745,7.852,19.606,10.208,-9.855,7.077
6.903,-29.916,-8.591,-18.939,17.958,0.338,19.150,-10.523,-10.003,-7.387,-19.452,6.703,13.243,7.602,-14.448,-3.781
10.494,-23.975,-13.569,-20.188,16.606,1.795,17.130,-15.725,-13.811,-6.643,-18.558,11.388,7.054,7.470,-8.231,-12.883
18.427,-27.094,-11.922,-19.386,15.739,0.480,18.102,-14.721,-12.194,-7.710,-19.267,11.071,2.238,1.993,-10.257,-10.940
15.732,-26.514,-5.373,-25.672,11.852,-14.017,5.099,-5.853,-5.482,-20.778,-12.840,13.372,-1.455,-7.046,-3.663,-20.110
23.953,-27.233,6.412,-25.386,13.361,-16.549,4.627,6.234,6.416,-14.797,-17.176,13.553,-2.069,-3.094,1.393,-17.546
27.032,-13.903,19.146,-19.125,12.341,-18.371,5.145,21.424,18.807,-19.341,-14.768,14.045,-8.130,-2.927,3.371,-17.055
20.901,-5.458,31.420,-23.906,9.886,-19.469,8.088,34.722,30.491,-17.032,-11.780,9.258,-11.455,0.593,1.418,-23.635
18.055,-2.684,39.125,-18.688,7.193,-19.732,4.143,42.351,38.061,-19.227,-6.962,12.575,-11.249,-4.124,12.987,-24.284
29.419,1.416,41.044,-18.217,1.477,-22.154,-0.183,43.957,40.269,-16.001,-2.031,9.015,-14.261,-7.038,8.184,-26.967
25.635,7.395,35.176,-15.133,2.737,-22.369,-4.951,38.274,34.455,-17.575,1.962,5.412,-7.775,-6.906,19.961,-27.367
19.521,13.024,24.382,-16.819,1.762,-21.036,-1.997,26.328,23.573,-10.211,4.151,8.178,-20.033,-5.045,12.211,-21.862
11.923,19.507,9.796,-14.410,-4.773,-21.153,-1.294,11.143,9.884,-20.626,4.536,1.404,-22.402,1.591,11.243,-21.044
7.013,24.620,-3.920,2.665,-7.408,-28.685,5.534,-4.730,-3.458,-9.558,3.972,-4.463,-22.066,-1.648,13.839,-16.612
8.905,25.582,-15.843,6.155,-9.976,-24.108,-1.808,-16.878,-13.499,-4.514,12.037,-5.894,-12.966,0.315,18.317,-8.335
4.884,19.714,-22.548,6.445,-15.427,-21.312,-6.445,-24.421,-20.322,2.648,13.553,-2.030,-13.818,6.738,21.256,3.706
5.277,11.786,-21.643,11.343,-17.410,-16.039,-4.464,-23.895,-19.764,7.370,16.398,-8.428,-9.510,3.300,20.430,4.298
-1.368,22.073,-15.163,16.925,-13.999,-19.217,3.066,-16.586,-13.671,-1.283,16.040,-11.463,-7.023,11.695,18.482,11.736
-11.081,16.350,-5.128,7.630,-9.537,-7.885,12.946,-5.256,-4.196,11.378,13.004,-15.621,-3.538,14.530,19.449,4.218
-16.336,16.435,6.715,6.023,-10.153,-8.005,17.058,7.207,7.231,15.866,17.891,-14.130,1.646,23.607,16.084,6.875
-7.155,9.266,16.728,14.842,-6.829,-6.581,13.055,18.513,16.340,22.132,12.731,-5.355,3.377,32.298,12.230,19.854
-8.278,4.834,21.665,14.465,0.360,0.402,22.886,23.795,21.336,20.611,8.579,-3.825,8.249,36.485,8.279,14.616
-5.239,1.888,21.677,20.162,0.471,9.677,21.504,23.185,20.659,12.880,7.559,0.386,14.978,31.950,7.752,21.818
-8.012,6.875,14.488,17.447,3.509,6.684,22.571,15.525,14.736,27.245,0.920,2.180,16.525,28.423,5.631,15.475
-10.004,-4.096,2.124,13.602,9.770,9.974,26.183,2.640,2.139,17.448,1.709,-1.938,15.512,30.660,-4.287,14.179
-10.160,-9.555,-11.876,8.497,12.105,5.164,23.158,-13.201,-12.488,12.116,-3.645,-1.293,15.264,25.523,-7.038,18.879
2.353,-2.620,-25.789,11.235,21.239,3.107,26.572,-28.640,-25.064,10.963,1.231,6.105,19.876,26.662,-13.151,14.470
5.197,-12.791,-36.161,8.986,18.030,5.648,18.947,-38.924,-34.491,1.103,-4.727,4.851,24.637,28.255,-11.457,6.139
3.628,-18.130,-40.128,-4.618,11.181,-0.499,17.527,-43.417,-38.742,-9.154,-10.377,2.587,12.096,23.421,-8.987,8.866
7.244,-17.595,-37.143,-9.966,17.490,5.390,10.159,-41.142,-36.478,-4.620,-14.838,13.672,12.512,17.915,-12.508,-0.906
15.861,-14.104,-28.252,-11.268,16.053,6.625,6.269,-32.038,-27.759,-0.734,-17.582,13.042,13.252,18.516,-10.456,-6.989
25.408,-17.554,-16.525,-15.090,13.967,-0.776,6.902,-17.811,-16.313,-9.463,-17.365,9.671,11.356,9.372,-10.599,-12.318
25.603,-14.106,-3.340,-13.091,7.909,-1.354,-1.387,-2.748,-3.430,-9.088,-18.716,13.097,9.998,12.909,-5.263,-19.351
27.771,-12.780,7.381,-8.929,7.689,-7.712,-9.963,8.181,7.387,-19.025,-20.742,12.989,2.993,3.726,-3.761,-19.437
19.719,-10.347,13.909,-19.007,5.163,-14.805,-1.449,14.482,13.043,-23.395,-11.894,21.580,1.418,-1.701,1.011,-20.026
23.128,-8.913,13.916,-26.490,3.761,-7.218,-9.124,14.821,13.044,-25.979,-12.844,15.173,-7.527,-2.097,6.113,-23.835
24.625,-1.029,7.542,-21.476,7.827,-11.237,-18.692,8.688,7.701,-22.717,-13.921,12.196,-9.042,-1.786,5.769,-23.992
25.424,5.736,-2.409,-18.448,2.752,-14.003,-12.098,-3.369,-2.001,-23.926,-15.447,8.360,-8.165,-3.699,12.704,-25.996
20.528,3.150,-14.757,-15.277,-0.494,-13.139,-10.045,-16.760,-13.885,-28.557,-8.086,4.707,-9.402,-3.438,17.452,-24.724
22.321,3.682,-25.208,-13.509,-11.072,-19.612,-1.882,-28.680,-24.044,-23.117,-3.570,2.130,-12.002,-2.388,19.306,-14.287
25.470,2.937,-31.886,-16.234,-6.977,-17.753,-4.098,-35.701,-29.894,-20.632,-2.958,-6.970,-14.572,4.184,19.054,-13.061
16.344,5.032,-32.713,-5.525,-3.947,-19.348,-6.227,-35.413,-30.518,-17.876,-1.348,-8.414,-10.253,3.332,23.383,-3.337
7.340,16.050,-26.304,2.989,-14.005,-18.005,-7.978,-28.718,-24.717,-11.341,2.542,-15.178,-7.566,12.613,22.832,-7.276
2.478,10.364,-15.102,0.575,-15.963,-15.397,1.608,-17.169,-13.359,-4.978,5.007,-12.024,-6.345,12.087,25.107,-5.942
3.663,15.098,35.176,6.111,-20.091,-9.583,2.526,37.863,35.192,5.318,9.433,-12.187,-3.408,18.492,30.167,-2.712
-2.849,13.187,49.772,10.793,-18.499,-4.837,14.025,54.896,48.666,10.207,10.970,-13.973,0.947,20.720,27.281,-2.194
-4.506,10.361,60.498,21.166,-13.036,-7.283,9.608,67.080,60.176,10.850,5.627,-14.412,1.282,24.212,22.050,4.318
-8.669,10.860,31.632,12.307,-17.334,-3.679,11.103,35.133,31.381,7.690,10.035,-12.358,2.828,27.172,19.798,5.382
-7.809,12.694,31.597,16.866,-13.653,-2.164,22.174,34.703,29.976,7.401,1.708,-17.520,14.782,36.919,14.195,12.210
-10.314,10.358,25.238,11.039,-12.554,-0.677,15.037,27.735,23.859,8.813,1.952,-19.242,17.959,34.688,4.108,12.020
-9.901,3.323,14.567,22.164,-8.963,3.938,17.585,16.795,14.595,12.125,-4.992,-11.817,21.692,32.821,1.862,31.786
-10.109,11.785,2.448,18.846,-7.942,3.973,26.186,3.163,2.428,14.991,-1.583,-3.538,22.790,30.699,-0.003,18.280
-5.232,0.455,-7.785,15.873,1.788,7.890,22.245,-7.639,-6.471,24.207,-7.847,-1.058,25.426,32.627,3.499,22.415
2.754,-2.078,-13.137,19.966,-1.542,10.560,20.385,-14.832,-13.387,14.777,-7.295,3.943,29.328,26.354,-3.366,22.481
7.667,-7.943,-13.343,15.780,4.379,8.205,25.720,-14.493,-12.371,15.683,-12.588,-2.782,33.823,17.592,-3.830,18.675
12.772,-14.246,-7.360,14.034,2.112,10.294,20.285,-8.520,-6.691,12.822,-15.893,1.471,29.265,23.577,-10.579,11.741
7.931,-22.154,3.423,4.179,0.662,11.438,11.363,3.653,3.331,0.162,-11.165,9.567,28.471,18.832,-13.394,9.723
13.361,-28.146,16.471,-7.733,4.783,10.151,14.926,19.023,15.938,3.157,-12.763,11.219,26.980,14.954,-14.654,1.811
16.385,-21.929,29.047,-12.245,6.258,8.413,12.453,32.044,28.029,-1.598,-19.722,13.174,21.750,8.891,-11.686,3.621
21.935,-23.622,37.583,-11.061,14.083,-0.288,18.342,41.693,36.888,-2.011,-22.761,22.178,25.486,7.233,-13.236,2.945
26.157,-26.095,40.172,-18.125,21.929,-3.142,12.574,45.116,39.497,0.261,-17.837,24.876,23.162,-3.976,-14.354,-3.905
22.496,-18.360,36.231,-19.185,13.582,-5.178,-2.121,40.563,34.874,1.356,-12.512,27.488,18.267,-3.945,-10.789,-1.210
27.017,-16.854,26.821,-18.149,16.165,-8.785,-1.987,30.031,26.077,0.368,-12.423,31.392,9.907,-7.979,-3.067,-11.065
23.810,-7.464,13.086,-10.174,10.497,-15.568,-1.088,14.566,13.401,-1.385,-14.348,33.774,12.125,-5.820,1.297,-13.235
25.183,-14.878,-1.292,-19.232,5.605,-10.223,-5.544,-0.729,-1.345,4.425,-7.049,19.279,15.701,-7.693,3.861,-16.373
32.821,-16.888,-13.136,-17.823,2.313,-10.860,-6.778,-15.230,-13.162,-4.513,0.105,18.391,3.194,-8.091,11.027,-19.361
32.877,-6.490,-20.036,-19.501,-0.854,-12.017,-7.813,-23.299,-19.413,-11.955,-4.043,18.958,6.334,-2.542,9.228,-19.597
37.835,1.664,-21.130,-9.871,-6.066,-9.816,-11.071,-24.725,-20.280,-12.388,0.755,14.040,3.922,-6.452,9.549,-21.735
38.064,-0.149,-16.287,1.354,-4.552,-9.525,-12.632,-18.396,-15.145,-5.866,3.436,3.602,3.609,-4.902,15.259,-18.612
29.310,6.117,-6.440,1.167,-6.005,-13.058,-5.977,-7.737,-6.073,-5.102,5.642,-2.383,2.817,1.156,16.796,-15.593
26.347,5.501,5.036,-3.161,-9.807,-12.626,-3.104,5.370,4.230,-3.828,14.367,-2.794,-0.874,9.414,24.469,-11.478
20.058,-2.480,15.159,4.560,-7.869,-10.573,-2.673,16.927,14.965,-2.847,17.978,-2.514,2.482,10.177,27.195,6.624
16.462,-6.365,21.932,8.312,-14.065,-4.313,4.407,23.598,22.068,3.285,17.063,-4.934,4.766,17.079,20.322,7.533
11.536,-1.601,22.670,0.648,-14.657,-5.292,5.565,24.103,22.444,1.023,19.205,-7.251,4.123,22.677,20.208,4.056
9.368,-5.975,16.463,3.814,-16.703,-1.158,7.099,17.991,15.734,13.395,20.885,-2.133,9.460,28.147,13.488,7.363
-2.154,7.263,5.351,10.022,-13.701,2.844,11.851,5.397,5.160,18.537,15.985,-9.691,11.755,24.456,8.572,11.966
-6.848,-1.450,-8.687,13.304,-21.331,5.317,16.817,-10.816,-8.725,30.257,13.348,-8.592,13.892,29.645,15.533,8.460
-7.840,-0.053,-22.967,8.711,-18.289,-0.036,17.947,-26.724,-22.024,21.439,15.008,-8.184,21.913,33.169,12.328,14.105
-5.711,-10.061,-34.131,1.455,-15.615,3.004,20.884,-38.525,-32.413,23.198,6.543,-8.786,17.398,30.909,7.141,10.919
-11.699,-10.114,-39.614,1.760,-13.500,1.715,26.943,-44.242,-37.390,19.738,7.106,-5.227,24.132,31.582,4.128,17.954
-12.360,-14.083,-38.808,0.561,-8.353,2.788,25.791,-41.953,-36.243,20.974,2.346,-0.884,30.490,30.464,-8.972,20.380
-8.863,-25.496,-30.427,1.232,-0.024,4.858,30.478,-33.115,-29.116,14.816,-0.019,4.216,27.536,18.572,-13.104,17.392
-23.537,-21.571,-18.634,1.285,8.378,9.069,32.471,-19.580,-17.873,11.364,-0.230,0.373,25.841,23.673,-13.837,14.561
-13.766,-19.673,-6.174,-4.693,10.315,8.482,27.692,-5.133,-5.172,7.500,-3.807,1.907,29.225,28.257,-21.767,14.509
-12.259,-25.927,5.618,-5.440,6.525,9.594,29.479,6.965,5.811,4.991,-5.244,7.875,24.876,17.769,-26.559,11.830
-5.366,-22.789,13.147,-11.452,4.702,10.472,25.682,15.326,13.073,-0.489,-12.398,14.914,30.739,7.079,-24.768,7.304
0.185,-20.266,14.629,-12.758,7.013,9.980,19.657,16.669,14.327,3.067,-13.638,9.247,24.476,3.898,-24.794,1.072
-2.397,-21.075,9.860,-15.844,11.652,4.581,16.600,10.747,10.258,4.299,-15.113,14.323,22.223,0.381,-18.257,-6.289
7.230,-15.542,0.380,-17.518,12.469,3.230,5.906,-0.488,0.243,-6.003,-20.567,12.734,15.317,-10.989,-14.662,-13.769
9.670,-28.306,-11.255,-22.476,2.527,-5.403,2.754,-13.001,-11.492,-7.471,-22.698,14.760,10.717,-5.346,-11.229,-10.341
15.144,-24.512,-23.300,-24.549,7.898,-6.218,5.740,-25.280,-22.507,-11.755,-19.472,7.674,13.869,-5.853,-8.152,-16.625
25.768,-20.434,-31.059,-22.618,15.999,-13.897,-3.916,-33.403,-29.589,-13.599,-18.611,14.099,2.221,-11.605,-10.267,-14.433
24.021,-20.391,-32.094,-26.236,13.298,-13.200,-9.743,-35.940,-31.253,-12.303,-13.910,10.154,-0.112,-13.917,0.841,-10.380
24.547,-8.227,-27.955,-24.316,10.290,-9.979,-12.838,-30.575,-25.242,-14.589,-12.350,15.447,4.172,-16.286,3.401,-20.752
23.836,-5.059,-17.802,-21.503,0.618,-12.313,-23.386,-19.201,-15.832,-22.188,-7.158,7.927,-0.797,-10.787,10.420,-16.611
28.228,2.383,-3.269,-22.237,-0.601,-9.778,-19.380,-3.638,-3.244,-16.820,-4.712,7.149,5.898,-5.201,7.645,-13.950
25.405,7.943,11.133,-14.612,-4.276,-7.862,-12.178,13.537,10.930,-18.532,-3.572,6.474,4.215,-1.424,7.326,-21.671
20.472,6.243,23.874,-15.033,-10.704,-7.234,-8.335,26.411,22.545,-18.412,-1.975,3.716,0.275,0.803,14.986,-11.531
21.437,7.906,30.983,-3.502,-8.698,-8.183,-14.306,35.207,29.409,-16.055,4.354,-8.164,3.620,-0.051,20.450,-5.867
23.771,6.177,32.030,-1.973,-4.694,3.340,-10.368,35.382,30.864,-12.879,3.114,-8.735,-0.964,1.026,18.769,-11.232
20.005,3.379,26.512,5.843,-4.582,-2.416,-1.356,29.406,25.915,-11.026,13.243,-16.147,-3.380,10.039,17.388,-8.179
9.299,7.042,17.047,14.062,-11.434,-1.235,-1.826,18.156,16.585,-8.385,14.525,-9.815,0.773,11.004,20.257,-6.877
6.053,6.889,4.439,13.125,-8.146,-3.044,4.957,5.055,4.938,2.436,12.766,-13.238,9.671,9.626,15.767,4.845
-0.195,7.748,-6.706,13.622,-9.465,3.971,7.053,-7.291,-4.914,1.092,11.531,-12.934,10.201,20.072,19.149,14.585
-3.929,4.876,-13.073,20.208,-6.319,2.432,14.523,-14.575,-11.993,4.432,14.671,-12.497,15.851,24.497,9.876,11.553
-14.409,-1.728,-13.887,17.596,-13.354,2.398,23.636,-15.443,-12.939,6.194,11.049,-11.574,25.937,12.884,12.657,14.320
-8.710,0.363,-9.265,21.024,-8.372,4.951,24.010,-10.286,-8.824,11.855,9.118,-8.977,24.612,21.462,4.477,19.426
-17.558,-4.728,1.147,24.453,1.633,4.684,25.389,0.409,0.774,13.643,10.220,-6.959,25.922,33.652,5.028,14.243
-17.204,-13.874,49.477,16.143,6.725,9.321,30.325,54.338,47.696,21.606,5.480,-2.663,26.347,22.912,0.869,18.451
-16.075,-13.702,63.049,8.860,4.914,15.170,27.658,68.224,59.636,22.629,0.197,0.924,24.270,19.621,-4.942,28.302
-15.945,-19.542,72.757,9.419,12.492,19.240,26.058,78.998,68.469,20.796,5.010,8.486,30.931,12.693,-5.191,18.488
-6.501,-24.150,40.873,6.823,15.428,21.189,27.776,43.909,38.634,21.018,2.281,9.031,24.800,12.768,-5.240,18.140
-7.236,-32.913,37.944,7.502,15.061,19.733,25.745,40.864,36.863,17.381,-2.293,14.153,20.523,12.993,-5.383,12.394
-16.831,-29.128,29.294,-7.277,17.396,20.753,17.246,30.699,27.958,23.796,-7.675,23.421,26.753,6.138,-12.045,7.053
-14.916,-30.158,16.117,-10.277,20.582,15.717,16.458,15.818,15.504,9.119,-9.214,28.109,21.170,6.087,-16.388,5.297
-6.784,-27.067,2.014,-13.189,19.963,10.949,10.881,0.303,2.335,6.618,-9.000,29.575,13.654,-2.856,-14.217,8.494
3.629,-34.285,-11.195,-24.990,21.384,6.776,3.771,-13.446,-10.620,0.558,-13.013,28.089,10.407,-2.800,-11.676,4.975
2.664,-37.716,-19.587,-23.488,19.630,3.375,6.857,-22.691,-19.067,-1.084,-12.915,29.681,12.736,-8.953,-10.653,-9.161
4.109,-26.909,-21.576,-27.931,19.705,2.495,8.010,-24.228,-21.113,-4.088,-10.413,27.164,12.377,-18.957,-6.536,-12.331
4.742,-23.922,-17.271,-21.174,20.272,-1.849,2.812,-19.192,-17.589,-7.367,-8.709,31.498,3.771,-15.320,0.043,-12.284
9.296,-18.963,-8.089,-26.580,23.077,-10.459,7.061,-9.748,-8.659,-5.244,-4.379,27.806,-0.902,-15.449,3.690,-14.485
13.463,-19.104,3.411,-26.070,19.651,-18.378,2.650,2.755,2.378,-1.669,-9.017,31.333,-6.715,-13.301,11.252,-13.809
19.484,-19.625,14.393,-23.919,16.547,-14.856,-1.017,15.953,13.240,4.103,-3.897,30.414,-13.004,-9.339,12.603,-11.444
18.133,-15.848,21.580,-22.145,11.652,-19.989,-10.460,23.830,20.331,-11.640,0.954,27.134,-15.251,-7.916,20.610,-11.486
13.304,-10.337,23.448,-20.306,9.236,-17.334,-8.108,25.985,22.014,-8.257,-1.544,26.317,-12.362,-5.623,23.900,-15.132
14.026,-9.622,19.171,-16.974,4.058,-22.964,-8.276,20.726,17.188,-4.791,-1.054,13.152,-6.642,1.368,25.696,-8.047
10.758,-2.248,8.658,-17.475,-1.889,-23.332,-1.190,8.409,6.920,-1.276,7.818,13.262,-4.397,1.177,26.082,-14.342
0.148,8.708,-5.091,-4.747,0.818,-23.775,0.498,-6.890,-5.951,-1.418,8.378,7.995,-3.922,4.479,29.131,-5.433
-0.790,14.955,-19.322,-2.397,2.389,-21.809,-0.888,-22.667,-19.747,2.551,13.085,8.846,-9.174,11.311,23.127,3.075
-4.552,18.653,-31.706,5.026,-1.801,-13.657,-0.636,-36.090,-30.825,8.174,14.746,-11.572,-5.072,9.916,19.661,2.507
-10.562,17.481,-38.161,16.173,-4.695,-13.918,7.993,-43.253,-36.125,10.383,16.929,-6.012,0.962,9.368,23.358,4.586
-19.728,13.701,-38.282,17.234,-2.890,-7.585,17.321,-43.291,-36.062,15.421,16.541,-0.023,12.172,14.750,17.960,10.278
-19.255,9.187,-31.970,16.702,-4.428,-2.038,18.572,-35.590,-30.826,15.818,13.063,-6.801,9.958,20.753,17.592,11.888
-14.690,1.842,-20.801,12.277,-3.085,-1.381,31.782,-23.663,-19.676,20.328,11.912,-10.930,13.614,21.014,4.812,14.105
-12.229,-3.846,-7.724,12.543,-1.167,-2.535,29.774,-8.843,-6.812,23.460,13.444,-8.480,17.143,21.677,12.396,15.041
-15.808,-3.483,4.571,11.332,1.532,2.642,41.399,4.404,4.707,27.967,4.863,-6.548,20.299,23.101,9.068,18.573
-13.023,-11.628,12.708,15.945,3.360,4.521,32.407,13.303,12.383,33.171,-1.989,-2.855,25.903,22.966,0.975,15.630
-15.250,-16.029,15.415,5.781,11.627,7.236,28.740,16.441,16.164,34.538,0.404,-10.280,32.763,24.325,0.089,26.498
-11.183,-19.059,12.054,13.381,11.801,15.428,35.388,12.501,12.460,34.751,-5.186,-5.962,21.939,20.359,-1.804,19.841
-14.546,-21.523,3.249,11.074,13.289,24.063,36.517,2.156,3.232,25.265,-9.680,-9.239,25.814,14.185,-5.339,11.558
-10.728,-17.064,-8.524,7.984,17.042,21.456,23.601,-10.568,-8.516,17.033,-12.289,-1.587,24.392,19.095,-13.969,16.539
-21.217,-22.310,-20.003,-5.051,18.195,16.138,16.505,-22.914,-20.847,22.505,-18.452,2.745,19.309,16.621,-12.493,6.384
-13.850,-25.571,-27.872,-17.214,20.655,13.835,16.527,-32.572,-28.479,23.485,-19.500,6.553,16.742,13.860,-14.710,4.747
-10.070,-28.454,-31.551,-16.889,23.342,11.659,14.319,-36.472,-30.906,11.789,-13.291,6.891,16.075,8.186,-10.426,6.393
-4.154,-26.925,-28.602,-25.538,31.064,7.500,12.821,-32.759,-27.420,5.089,-20.956,19.642,15.981,7.562,-8.939,3.058
6.046,-38.639,-18.752,-21.724,30.763,5.693,13.057,-21.636,-18.210,0.185,-21.994,15.343,10.731,6.566,-5.909,-2.524
11.768,-28.723,-5.391,-21.101,24.717,-4.379,10.985,-7.004,-4.502,-6.684,-22.155,15.440,7.526,-1.454,-9.017,-8.296
11.005,-24.916,9.524,-24.728,25.363,-15.896,9.879,9.769,9.185,2.677,-15.815,8.761,1.943,-2.801,-1.877,-6.038
16.741,-22.228,22.469,-31.798,25.200,-19.381,2.228,24.526,21.919,2.695,-10.274,6.977,2.397,-7.436,-1.274,-8.054
21.478,-23.076,31.736,-27.318,18.235,-13.026,3.903,33.584,30.551,-14.531,-11.877,11.108,-2.429,4.852,8.744,-15.591
12.052,-24.241,33.514,-23.622,18.240,-12.072,6.598,36.110,31.849,-12.781,-8.876,6.892,-9.667,1.876,8.916,-23.427
15.264,-16.663,29.603,-19.792,10.259,-14.116,-0.926,31.867,28.378,-15.559,-5.417,1.128,-12.644,-1.821,16.632,-15.253
13.646,-10.940,20.347,-17.565,6.703,-19.681,-4.043,21.086,19.179,-7.595,-0.381,1.885,-12.809,0.886,14.269,-20.898
14.989,-6.461,8.133,-13.359,2.879,-16.118,-5.021,8.168,7.683,-8.417,6.697,-5.601,-8.820,3.358,17.435,-18.556
5.843,-3.756,-3.360,-14.475,-3.879,-15.749,0.913,-4.264,-2.700,-7.080,9.071,-8.899,-5.989,8.975,29.240,-16.147
0.501,-5.686,-10.997,-10.869,0.238,-16.434,-1.301,-13.718,-11.044,-5.661,11.796,-10.501,-9.259,11.088,27.550,-11.836
-0.247,-0.926,-13.767,-2.960,-1.691,-15.273,4.680,-16.278,-14.319,-3.638,12.591,-8.795,-13.509,11.778,26.969,-10.836
5.870,-0.068,-9.680,5.410,-5.656,-10.190,2.468,-12.419,-9.966,13.139,8.331,-9.982,-14.627,16.552,27.628,-2.111
2.034,-4.398,-0.597,6.105,-10.325,-5.835,3.335,-1.876,-0.949,12.881,16.719,-11.649,-15.784,22.887,28.825,-3.108
-7.749,-5.621,11.585,11.214,-12.586,-5.046,5.425,11.041,12.303,15.507,15.597,-19.144,-9.397,25.874,27.296,5.397
-2.229,6.584,24.960,15.056,-11.330,1.032,19.678,25.855,24.387,21.554,8.909,-25.235,-0.924,29.862,27.624,12.255
-11.103,-5.202,35.348,18.518,-13.927,-2.115,17.842,36.808,33.568,29.765,7.484,-18.894,6.061,31.838,28.191,15.633
-21.166,-4.312,40.599,9.109,-9.167,-1.466,22.237,42.786,38.808,26.788,7.350,-24.633,13.837,32.335,18.015,11.350
-23.648,-7.606,39.191,13.737,-6.767,8.604,18.173,42.242,37.647,25.117,12.085,-22.156,18.144,26.268,22.881,16.032
-20.181,-17.802,31.508,12.786,-4.717,15.462,19.300,33.012,30.199,19.874,5.025,-25.597,20.016,27.286,16.036,19.329
-26.747,-18.664,18.418,5.062,-1.133,16.718,25.661,19.286,18.320,26.857,7.510,-24.940,15.796,35.812,10.499,19.547
-23.778,-18.137,5.033,1.932,-5.995,18.705,26.024,3.145,4.738,27.403,3.815,-16.740,12.739,37.195,0.987,14.603
-15.648,-16.345,-8.668,0.741,-1.101,16.750,27.379,-11.451,-8.394,29.768,-0.973,-10.621,19.151,31.645,2.175,12.138
-11.570,-24.724,-18.408,0.300,7.339,15.237,21.931,-20.719,-17.874,20.285,-10.635,-7.059,21.298,26.359,-5.823,8.054
-13.380,-21.595,-21.497,-6.844,11.875,23.760,23.051,-24.158,-21.387,16.170,-13.058,-4.586,17.706,25.724,-5.406,5.073
-15.508,-20.448,-18.168,-14.057,13.863,15.901,19.606,-21.031,-18.517,11.255,-9.866,-0.673,13.476,23.666,-6.877,1.268
-8.260,-23.553,-10.098,-16.366,15.217,16.028,21.044,-12.878,-9.939,15.552,-11.855,0.568,12.639,17.398,-6.459,3.082
-9.870,-19.144,36.550,-24.803,11.531,8.402,17.655,39.072,34.567,9.139,-17.588,2.821,10.742,10.252,-10.208,-5.732
-8.840,-27.111,47.547,-20.272,15.585,13.009,11.520,51.369,46.641,6.224,-17.543,11.279,9.049,9.409,-1.574,-4.228
-3.957,-21.385,55.425,-18.806,9.031,10.559,8.290,59.740,54.768,5.553,-17.474,13.469,15.020,0.627,-6.751,-13.168
-2.750,-25.960,22.199,-23.060,8.223,10.719,-0.369,24.617,22.720,-4.434,-21.616,18.556,11.410,-6.016,3.738,-18.741
-2.698,-18.356,18.912,-15.600,18.799,5.639,-5.503,19.991,19.060,-3.300,-21.452,19.152,-2.518,-4.493,6.134,-23.886
7.291,-23.818,9.376,-20.621,15.221,-2.426,-6.006,10.099,9.806,-2.174,-20.169,18.417,3.176,-6.114,2.998,-27.825
9.241,-18.286,-3.799,-26.702,7.793,-9.506,-6.159,-4.419,-3.134,-12.351,-17.008,18.183,-7.531,-14.743,5.749,-25.985
18.219,-5.617,-17.558,-24.644,6.600,-13.912,-19.576,-20.097,-16.437,-11.651,-14.600,14.780,-12.173,-20.106,9.175,-31.874
17.553,-0.953,-29.841,-27.593,3.675,-7.715,-12.555,-35.198,-28.608,-7.289,-8.844,11.298,-11.985,-7.645,12.713,-24.662
13.366,-1.835,-38.102,-19.375,-2.532,-11.836,-20.649,-43.294,-35.159,-2.060,-5.381,7.038,-13.907,-9.197,18.849,-31.469
20.588,-9.204,-39.403,-9.319,-6.410,-9.181,-24.131,-45.050,-37.187,6.626,3.271,5.796,-15.350,1.278,22.178,-24.477
20.048,-8.226,-33.730,-7.227,-9.750,-11.050,-15.291,-38.894,-31.701,-2.761,6.158,-0.189,-16.091,4.156,21.014,-19.545
20.439,-2.706,-24.070,0.819,-3.926,-13.403,-7.964,-26.997,-21.882,-0.483,3.298,-19.201,-10.568,6.353,27.393,-15.379
-0.154,-0.806,-11.328,0.166,-7.212,-9.899,-8.950,-12.507,-9.437,4.283,9.627,-25.062,-11.822,17.222,28.692,-14.669
2.370,-3.534,1.367,2.385,-8.907,-1.797,-13.507,1.514,2.789,6.643,12.853,-21.994,-5.051,17.300,30.641,-8.168
-0.460,5.628,11.522,9.268,-14.120,-2.313,-6.733,11.319,11.884,3.499,17.685,-24.191,-3.064,16.660,30.340,3.437
-4.922,6.259,15.282,6.920,-16.312,-6.555,-1.660,15.715,15.233,10.317,13.038,-13.324,0.968,20.355,25.315,2.060
-11.448,-2.552,12.924,11.545,-12.862,1.909,5.061,12.681,12.676,13.017,11.337,-13.232,-3.218,19.821,26.377,10.546
-13.491,-4.748,4.605,11.259,-5.354,6.749,6.273,3.641,5.275,17.702,13.273,-14.900,5.323,23.692,22.415,12.760
-17.333,-5.161,-6.938,8.562,-6.287,2.500,13.571,-8.787,-6.155,18.932,11.873,-13.570,11.472,31.217,16.411,18.300
-10.768,-11.533,-19.410,11.164,-10.753,-0.211,9.724,-22.790,-16.584,18.396,11.423,-16.760,8.448,30.321,11.596,22.119
-8.210,-9.660,-28.599,4.889,-0.389,9.799,12.222,-33.335,-26.186,14.179,7.191,-12.874,16.619,31.569,11.814,22.368
-12.146,-17.579,-32.696,-2.176,1.471,16.643,26.118,-37.655,-29.494,12.399,5.856,-11.323,18.972,35.468,4.238,21.480
-9.497,-22.729,-30.946,-2.631,6.854,21.737,26.351,-35.153,-27.847,19.871,4.263,-9.592,23.766,28.909,2.450,18.474
-13.107,-28.895,-22.911,-0.351,9.594,16.786,22.606,-25.912,-20.603,15.096,-6.094,-6.232,20.342,27.604,-1.831,15.125
-8.452,-29.099,-9.946,-5.237,9.942,22.751,19.950,-10.656,-8.152,17.487,-8.827,-7.297,20.087,22.810,3.433,12.034
-7.232,-22.778,5.754,-14.332,18.287,21.796,14.277,5.959,6.016,17.812,-15.887,-1.970,22.902,18.815,2.741,12.474
-11.736,-28.156,20.244,-13.268,18.890,16.682,21.116,20.890,19.662,8.833,-15.042,4.064,18.525,20.336,-1.824,10.488
-8.833,-28.121,30.105,-20.287,20.865,16.561,14.204,32.176,28.106,3.085,-17.568,0.910,20.987,13.881,-0.468,3.584
-0.763,-34.615,34.081,-19.542,19.472,9.418,5.180,35.960,32.098,-4.425,-19.292,-2.305,12.765,9.974,3.348,-4.405
6.373,-34.676,30.430,-21.406,16.992,9.817,3.583,32.829,29.348,-11.094,-19.089,0.369,14.037,8.378,-3.636,-9.165
10.920,-31.549,21.147,-10.453,19.549,2.033,7.066,24.004,20.131,-6.987,-20.593,7.356,8.375,3.036,-3.646,-3.972
21.189,-20.875,9.409,-23.005,19.423,6.743,2.399,10.711,9.539,-13.730,-20.966,9.207,1.664,-3.922,-4.694,-9.975
14.452,-24.216,-1.815,-20.494,12.194,-2.611,-11.615,-2.117,-2.496,-12.751,-21.149,10.310,2.786,-9.172,1.410,-10.735
17.523,-23.850,-11.346,-25.220,15.554,-5.005,-10.396,-11.729,-10.558,-6.810,-23.253,4.530,0.742,-9.056,8.751,-16.377
7.468,-8.215,-13.868,-21.220,7.687,-7.739,-14.502,-16.826,-13.602,-9.323,-17.385,3.698,-10.145,-13.283,11.212,-16.639
15.775,-10.401,-11.963,-21.256,5.181,-14.523,-7.086,-13.367,-10.048,-11.147,-11.022,-3.387,-13.882,-12.583,11.756,-13.022
12.131,-9.327,-3.694,-16.004,0.420,-5.405,-13.176,-4.902,-2.236,-3.964,-7.312,4.661,-9.648,-14.120,17.221,-12.084
9.559,-1.175,9.480,-20.213,1.492,-15.110,-19.118,9.104,9.076,-2.532,-2.398,-3.103,-15.692,-2.377,19.661,-16.058
11.299,-1.744,22.328,-11.973,-2.242,-11.508,-15.480,23.844,21.566,-6.722,-3.912,-7.899,-12.716,-4.306,21.152,-11.336
2.741,3.595,33.008,-9.833,-3.498,-7.743,-12.305,36.028,32.173,0.622,2.312,-16.974,-10.614,-1.395,24.317,-3.391
4.621,11.070,39.424,-6.777,0.708,-1.977,-9.851,42.426,37.940,3.251,9.414,-24.787,-17.973,-4.553,20.489,-1.512
2.512,16.413,39.702,2.306,-9.084,-4.214,-1.865,42.884,38.263,4.735,9.487,-20.342,-15.642,0.400,20.984,-6.398
-7.088,10.885,33.306,5.643,-1.602,1.589,-4.274,35.260,31.877,6.167,10.756,-23.186,-14.060,8.980,23.636,-2.797
-1.209,8.395,21.890,13.285,-7.747,3.954,3.791,22.398,20.044,8.209,10.637,-21.496,-5.384,13.725,20.849,-0.376
-12.386,5.766,7.269,17.776,-6.248,13.484,2.492,6.973,6.999,17.522,11.538,-21.793,0.603,13.296,15.655,5.447
-18.005,0.221,-7.123,15.792,-4.904,12.082,13.736,-7.807,-6.626,22.064,8.477,-20.010,0.995,18.713,11.580,8.816
-20.469,2.878,-16.904,15.518,-5.612,7.082,18.620,-19.767,-16.548,24.228,11.417,-27.548,3.635,20.265,7.207,20.356
-28.407,2.319,-21.702,16.342,0.975,16.876,19.246,-24.161,-20.908,20.729,10.847,-23.193,3.254,30.045,5.191,20.284
-25.429,-3.631,-20.671,12.597,0.584,20.550,25.689,-22.206,-19.692,20.605,5.472,-21.228,5.292,21.148,3.519,23.812
-30.579,-13.776,-13.819,12.783,4.800,24.535,23.335,-14.398,-12.496,29.727,5.681,-12.441,7.476,19.543,-4.350,25.636
-28.258,-18.453,-2.726,9.287,6.639,27.735,20.486,-2.602,-2.252,24.157,-1.842,-7.851,7.846,9.320,-1.329,24.137
-22.665,-12.383,9.114,6.006,13.683,20.130,20.971,10.772,7.742,23.655,-6.743,-2.760,5.316,16.712,-15.703,19.667
-22.540,-13.113,18.199,2.690,20.567,23.399,21.016,20.240,16.115,23.289,-13.507,0.591,4.844,17.141,-15.509,27.356
-14.501,-25.188,22.647,0.495,23.629,27.976,18.423,24.534,21.055,20.540,-11.055,2.914,7.633,8.370,-17.867,21.278
-5.341,-19.927,20.681,-16.226,21.334,19.153,12.806,22.364,19.490,14.398,-14.340,6.458,9.042,11.176,-16.251,21.295
-3.544,-17.196,12.075,-11.139,19.263,17.531,6.385,12.803,11.178,11.573,-11.163,8.561,-0.729,12.576,-13.763,16.996
-2.070,-15.135,-1.395,-17.425,22.171,18.336,-0.060,-1.022,-1.963,8.208,-11.861,20.544,2.059,6.845,-11.247,10.236
7.271,-17.679,-16.258,-19.420,25.269,10.908,-11.501,-16.797,-15.019,-4.566,-11.944,28.615,2.639,2.914,-9.156,8.605
10.300,-6.239,-28.675,-14.388,21.958,-1.531,-5.164,-31.874,-27.588,-7.377,-13.389,22.238,3.346,2.810,-8.281,4.335
2.760,-3.938,-37.461,-23.373,24.006,3.840,-3.202,-41.254,-35.847,-5.720,-15.367,29.035,2.795,0.995,-4.989,1.332
20.102,-5.999,-40.516,-24.931,22.167,0.697,-10.045,-43.784,-38.582,-9.803,-13.428,24.472,-4.284,-10.772,-3.702,2.207
24.687,-13.758,-35.882,-29.748,20.592,4.079,-20.200,-38.138,-34.951,-8.245,-8.474,28.483,-6.423,-14.030,0.829,-6.983
27.997,-14.376,-25.884,-22.353,10.712,-2.707,-13.614,-28.376,-25.706,-11.198,-8.735,17.462,-11.096,-17.415,1.417,-8.687
25.907,-9.674,22.664,-23.190,8.191,-3.102,-22.027,24.768,21.201,-7.323,-6.095,15.279,-18.716,-22.559,9.384,-9.597
15.183,-12.971,35.730,-24.121,4.601,-7.841,-16.675,39.834,33.428,-11.293,-0.321,15.653,-13.008,-18.951,10.591,-10.554
11.031,-7.430,45.602,-19.780,3.466,-16.844,-23.916,49.974,44.743,-15.435,4.432,9.928,-21.426,-10.068,10.120,-6.881
12.583,-4.366,13.787,-12.748,-7.521,-18.263,-19.310,15.718,14.394,-13.787,7.210,5.847,-13.807,-4.463,13.298,-3.618
9.575,7.688,13.531,-3.880,-12.179,-15.914,-11.442,14.793,13.377,-10.201,11.416,3.686,-16.994,0.615,23.112,-8.070
3.767,6.675,6.922,-3.867,-10.532,-12.139,-3.553,7.922,6.274,-6.098,11.630,2.716,-13.023,-1.237,17.915,-1.011
-5.291,7.424,-4.382,-1.656,-17.610,-11.430,-12.352,-4.630,-3.441,4.997,12.162,-1.983,-8.088,10.614,17.332,-0.504
2.101,4.973,-16.615,9.306,-13.088,-5.918,-5.966,-18.505,-15.167,3.681,14.142,-15.821,-5.077,11.337,20.996,6.163
-1.784,3.489,-26.811,10.021,-15.781,-12.738,4.621,-29.343,-25.179,9.056,17.978,-11.014,-1.038,22.536,22.264,9.794
-5.670,-1.119,-32.137,14.246,-10.891,-7.904,9.028,-35.506,-31.142,14.862,13.038,-16.988,-1.226,22.571,20.042,17.176
-13.830,-5.345,-31.067,13.064,-13.378,-1.163,13.470,-34.876,-30.966,20.292,14.108,-18.117,2.485,26.499,19.143,25.004
-14.353,-9.763,-24.368,16.008,-11.629,6.213,16.728,-27.003,-22.892,28.773,16.008,-21.334,3.707,23.718,10.525,18.521
-16.123,-9.503,-12.005,14.218,-3.531,0.656,19.775,-13.712,-10.576,32.357,13.382,-23.917,12.756,23.259,6.160,18.814
-17.529,-6.150,3.529,28.394,-1.348,2.033,15.760,3.296,4.113,26.591,11.484,-16.882,12.913,26.115,5.753,25.679
-17.756,-12.030,17.270,15.040,-1.913,7.669,19.759,20.124,17.072,25.225,4.936,-10.617,14.112,27.276,3.006,29.320
-15.574,-8.823,27.292,13.510,-2.330,8.107,23.647,31.247,27.043,22.844,0.889,-8.110,11.179,35.003,-1.891,27.793
-13.814,-13.825,31.807,12.452,2.605,7.559,17.318,36.247,31.175,22.580,-4.468,-2.999,12.301,29.258,-4.379,27.522
-13.949,-16.652,30.669,-0.292,2.420,14.157,14.022,34.504,30.650,18.697,-3.153,-7.928,15.694,14.546,-7.400,19.487
-7.651,-16.884,23.320,-13.095,9.858,19.351,15.804,25.955,23.341,22.157,-9.750,-3.196,17.826,15.253,-8.358,17.152
-12.368,-16.937,12.320,-12.106,13.431,15.051,22.465,14.021,12.741,15.482,-10.929,3.134,17.190,16.849,-2.801,19.273
-3.030,-23.704,-0.042,-9.993,15.449,12.631,14.746,0.364,0.777,19.839,-5.505,8.217,13.583,10.740,-5.081,12.203
-7.408,-20.773,-9.477,-18.422,12.568,14.401,9.526,-10.103,-9.483,8.721,-13.563,14.246,14.791,3.932,-1.770,6.949
-1.890,-23.172,-14.425,-17.503,11.905,10.171,3.639,-16.193,-13.621,-1.014,-17.733,18.150,6.649,-0.018,-3.803,-0.783
-1.354,-24.956,-13.343,-13.467,16.627,3.755,1.042,-14.361,-12.223,-0.584,-20.505,18.262,4.126,3.278,-4.922,-5.777
7.457,-27.074,-6.279,-19.901,15.684,-3.416,-4.447,-6.549,-5.389,-5.806,-12.546,17.834,4.473,-5.646,2.606,-4.558
9.636,-15.154,5.807,-24.069,15.742,-6.789,-11.234,5.533,5.545,-8.194,-18.191,12.069,0.751,-7.298,5.001,-0.066
10.988,-17.919,18.737,-24.202,15.363,-12.274,-11.674,20.215,18.073,-10.639,-14.225,13.584,-8.166,-11.979,11.690,-15.143
12.512,-14.493,30.889,-18.592,9.332,-9.287,-17.017,34.281,29.380,-8.094,-9.413,11.250,-14.380,-14.403,10.977,-18.026
3.760,-17.228,38.774,-19.087,8.508,-11.601,-20.960,42.830,36.556,-14.605,-5.705,11.798,-12.239,-11.378,16.532,-19.462
7.840,-11.164,40.094,-16.470,1.874,-17.753,-13.740,44.754,38.566,-14.537,0.570,8.131,-18.704,-11.569,16.050,-14.953
12.842,-8.759,35.312,-19.310,1.625,-19.440,-13.743,37.692,32.828,-10.019,-4.824,-0.279,-24.559,-2.691,22.828,-12.618
15.214,1.357,24.396,-17.022,-2.735,-21.327,-18.634,26.167,22.998,-11.504,0.185,-8.300,-23.074,-4.884,22.415,-10.535
15.969,3.602,10.394,-10.941,-1.798,-15.739,-12.039,11.444,9.805,-7.244,5.720,-5.431,-26.151,-1.447,23.144,-3.077
17.030,3.012,-4.300,3.500,-7.523,-10.957,-8.333,-4.840,-4.432,-5.991,5.913,-8.249,-24.208,5.063,25.196,3.728
3.329,7.532,-15.375,8.428,-9.623,-15.816,0.606,-16.897,-14.946,0.534,8.628,-15.119,-18.544,2.086,29.296,-4.203
1.295,10.325,-21.439,15.182,-15.367,-20.635,0.899,-23.695,-20.693,5.756,11.317,-24.281,-16.656,0.565,30.519,2.579
-3.017,4.104,-21.026,15.404,-19.803,-18.151,-1.385,-23.837,-20.848,8.265,7.307,-21.102,-15.854,4.721,31.181,6.474
-6.557,4.168,-14.551,12.870,-13.847,-14.350,4.467,-17.056,-14.720,17.379,2.309,-17.652,-8.776,13.286,29.668,15.168
-13.201,8.727,-3.746,21.523,-14.406,-9.085,11.658,-5.411,-5.244,13.193,8.519,-23.057,-3.192,21.516,25.232,17.891
-24.003,-4.941,7.732,24.275,-13.118,0.531,17.487,7.602,5.937,17.902,8.684,-16.675,-8.865,20.362,27.858,14.470
-26.971,-2.278,17.850,31.391,-9.639,4.352,17.178,18.299,15.280,21.447,10.133,-18.448,-4.663,23.321,25.495,23.267
-29.130,-1.289,22.855,23.113,-8.460,8.765,13.305,24.884,19.823,25.009,4.743,-15.022,0.359,23.088,15.274,23.945
-21.758,-7.586,21.484,20.943,-3.337,1.830,20.244,24.229,19.581,18.761,4.412,-16.775,-1.402,21.190,6.043,22.960
-26.371,-10.320,14.509,22.450,-1.688,-0.127,23.785,16.124,12.775,13.633,1.945,-14.649,1.765,17.143,7.374,28.692
-27.701,-13.935,2.516,16.372,0.761,5.176,25.906,2.960,1.046,8.957,-2.586,-15.608,12.276,20.731,0.630,31.664
-23.506,-14.635,-11.936,16.504,4.090,7.619,29.220,-13.010,-12.746,13.297,-6.010,-14.063,7.452,25.958,-2.832,28.779
-26.997,-19.024,-26.084,13.978,10.710,9.589,20.544,-27.273,-25.106,9.992,-5.675,-3.951,8.456,23.940,-3.659,36.221
-17.111,-19.408,-35.579,2.075,7.866,5.935,18.085,-39.251,-34.420,3.274,-6.772,-4.511,6.033,17.467,-11.125,27.972
-13.865,-18.104,-40.041,-13.143,8.423,8.434,17.682,-43.285,-39.445,-3.530,-13.498,0.524,8.491,10.927,-11.523,21.042
-8.614,-16.616,-37.187,-9.628,11.833,6.204,19.867,-40.263,-36.291,-6.532,-10.799,4.669,5.281,10.305,-8.900,16.159
-1.225,-26.952,-28.194,-17.105,13.836,-0.820,11.826,-30.807,-27.543,-8.093,-6.563,10.953,7.170,1.311,-11.621,14.219
-0.141,-27.997,-14.979,-21.495,11.257,-2.568,1.220,-17.829,-15.980,-8.862,-9.052,13.874,4.363,-6.637,-5.865,6.212
7.984,-25.362,-2.291,-19.946,16.460,-2.526,4.626,-2.753,-3.120,-11.146,-11.956,12.129,-5.327,-3.590,5.272,7.348
12.770,-30.472,9.157,-15.385,16.401,-2.295,-9.023,8.648,7.769,-13.198,-15.419,13.118,-10.307,-3.015,6.245,-2.078
11.886,-25.521,15.104,-10.273,14.701,-10.257,-7.103,15.626,12.931,-17.514,-12.409,15.721,-17.318,-4.877,5.105,-6.005
14.722,-19.042,15.283,-13.664,11.640,-20.362,-11.408,15.425,13.184,-22.514,-11.173,11.793,-14.832,-13.263,12.733,-9.033
11.074,-9.992,9.194,-13.536,3.727,-20.328,-6.381,8.638,7.187,-17.774,-12.805,17.020,-25.569,-10.998,15.767,-13.734
9.853,-2.249,-0.589,-16.159,-7.471,-13.721,-6.087,-2.772,-3.121,-17.413,-12.407,15.367,-30.888,-8.909,13.078,-11.797
10.339,-6.856,-13.105,-16.534,-6.040,-15.655,-9.834,-15.991,-14.589,-20.126,-8.700,6.674,-36.432,-4.601,19.529,-15.438
6.399,-7.064,-23.730,-10.094,-3.420,-18.264,-13.619,-28.085,-26.051,-18.790,-5.796,1.828,-29.990,-7.213,22.688,-11.602
9.427,0.683,-30.153,-7.384,-10.397,-23.931,-16.221,-35.552,-31.672,-14.413,0.664,-4.043,-28.924,0.355,22.587,-11.000
1.615,2.758,-31.375,4.585,-12.318,-22.199,-17.660,-36.265,-31.478,-4.704,9.328,-6.925,-24.729,-4.148,27.437,-4.042
0.031,0.337,-24.696,10.111,-20.348,-29.938,-8.871,-28.473,-25.625,0.562,8.038,-11.094,-25.189,-0.090,25.712,-13.785
1.449,17.222,-13.009,8.410,-16.974,-29.929,-3.216,-15.848,-14.909,-0.688,15.726,-11.070,-18.543,9.664,19.778,-6.241
-6.762,15.870,36.796,5.478,-20.771,-15.632,-9.202,39.961,33.301,4.937,13.287,-11.557,-14.960,12.468,23.302,3.594
-9.630,8.012,51.543,10.322,-24.045,-11.647,-4.227,56.657,47.850,6.670,7.636,-25.854,-8.887,17.202,20.330,3.323
-18.275,13.208,63.033,14.393,-13.726,-13.130,1.170,68.890,58.819,5.159,11.317,-25.972,-9.807,24.407,16.343,11.175
-19.851,2.746,33.449,25.593,-17.455,-6.188,4.831,35.734,31.078,13.091,8.386,-21.011,0.815,19.383,10.623,11.659
-19.517,2.271,33.272,23.849,-11.402,-3.638,16.613,34.915,30.724,17.914,7.600,-24.355,1.027,21.637,13.159,20.010
-27.974,-0.135,26.605,21.339,-6.472,-0.181,17.053,28.330,24.564,13.322,3.325,-19.608,-2.626,23.178,16.677,11.744
-27.873,4.669,15.371,10.363,-3.292,5.950,20.323,17.390,14.601,20.442,-0.894,-15.827,11.059,22.054,5.572,14.311
-26.634,3.582,2.663,14.279,-2.407,12.621,28.577,4.002,2.907,18.849,-8.532,-16.270,12.453,22.353,0.676,21.827
-21.684,1.592,-9.080,14.148,4.379,11.500,18.634,-7.509,-8.033,18.498,-8.424,-8.526,15.355,20.435,-4.625,20.771
-11.853,-7.450,-14.502,3.974,7.829,10.529,16.428,-13.912,-13.332,15.860,-8.475,2.948,17.429,13.917,-5.892,23.178
-19.210,-11.435,-13.936,-0.001,11.856,12.825,23.773,-14.540,-14.133,10.688,-9.076,6.185,10.276,10.207,-5.956,21.360
-11.248,-15.371,-7.403,-6.219,14.263,8.317,19.544,-8.590,-7.883,13.713,-12.883,-1.174,13.821,4.674,-5.949,20.830
-3.395,-16.051,3.709,-10.508,15.279,5.459,22.408,3.978,2.857,5.614,-16.851,8.695,4.180,3.845,-6.875,20.056
-5.141,-20.843,16.739,-12.579,5.996,-0.705,19.768,18.532,14.683,-4.188,-16.650,7.179,4.556,3.046,-10.541,4.091
-11.219,-22.382,29.132,-18.498,8.564,-0.533,12.760,32.528,26.744,-6.876,-21.070,16.062,1.296,-4.904,-11.719,0.886
-2.435,-27.416,37.243,-16.507,7.683,-3.336,9.175,42.501,34.902,-0.688,-20.295,13.585,-7.346,-2.088,-5.245,3.834
-2.194,-34.538,39.474,-20.368,5.189,-14.732,5.007,45.439,38.050,-10.340,-23.558,8.492,-6.890,1.163,-2.572,-11.290
8.224,-28.831,35.364,-19.781,5.281,-10.053,-3.325,40.906,34.163,-13.514,-19.038,8.563,-8.161,-6.952,-5.777,-3.418
20.625,-16.787,25.805,-21.183,4.885,-10.239,3.057,29.217,24.717,-11.908,-15.643,11.155,-16.401,-13.249,-5.871,-9.854
23.465,-19.068,12.356,-16.244,5.966,-16.172,-6.860,14.756,11.072,-6.891,-9.664,8.078,-15.121,-7.442,6.566,-18.286
20.561,-12.695,-1.926,-23.307,-2.146,-10.641,-10.835,-1.583,-1.671,-4.195,-11.562,13.888,-17.792,-13.588,7.951,-14.385
12.119,-15.279,-13.940,-25.604,-7.450,-18.993,-14.808,-14.498,-13.863,-9.679,-5.766,14.722,-19.852,-9.941,12.175,-13.513
14.681,1.144,-20.547,-22.023,-6.457,-28.907,-12.941,-22.576,-20.169,-0.270,-7.505,9.084,-23.463,-5.735,12.103,-15.065
16.199,0.917,-21.452,-20.328,-0.129,-26.117,-11.403,-23.550,-21.298,1.483,-7.652,6.943,-26.175,-3.794,20.084,-16.249
28.456,8.817,-16.402,-12.079,-10.014,-24.519,-18.816,-18.165,-17.295,-0.198,-5.218,-0.706,-22.123,0.240,21.055,-20.027
15.656,7.282,-7.030,-3.410,-14.399,-28.296,-10.492,-6.906,-7.521,1.064,1.589,-7.085,-23.224,6.893,20.426,-6.267
6.978,15.246,4.633,-3.719,-18.524,-22.728,-12.747,6.345,4.229,-2.146,10.565,-6.507,-23.581,3.685,22.376,-4.094
16.285,16.276,15.213,5.651,-17.330,-15.587,-9.842,17.354,14.223,-2.480,10.447,-5.495,-20.986,9.443,24.464,-2.858
16.430,12.487,21.190,-2.442,-14.119,-12.342,-10.928,24.628,19.585,3.783,11.404,-8.374,-13.199,12.496,26.194,0.141
8.899,18.839,22.175,7.164,-21.628,-13.490,-8.850,25.474,19.482,12.420,14.809,-7.993,5.471,16.055,26.292,-0.591
4.120,8.244,16.444,16.754,-20.174,-12.550,3.487,18.570,14.435,17.220,11.473,-9.961,-3.364,21.529,29.375,6.994
-2.549,12.579,4.435,14.780,-21.086,-7.417,6.144,6.644,4.247,14.873,16.770,-10.575,4.061,20.307,25.948,12.314
-12.588,12.536,-9.691,14.191,-15.076,-1.359,6.044,-9.756,-8.281,8.411,10.059,-14.825,-4.428,21.777,22.897,7.955
-8.371,-0.167,-23.789,22.395,-11.618,-0.759,5.445,-25.265,-23.131,20.071,8.195,-18.009,6.943,21.539,14.759,10.217
-13.337,-1.434,-34.690,23.034,-4.797,5.911,11.160,-36.287,-32.895,23.514,5.142,-18.727,5.893,25.549,15.112,20.595
-16.113,-5.334,-39.925,16.409,-7.611,9.240,14.265,-42.079,-38.776,22.395,8.316,-14.347,9.481,18.867,5.771,14.678
-16.761,-4.589,-37.965,8.011,-0.447,11.451,13.371,-40.810,-37.028,18.762,4.171,-7.042,17.907,23.370,-3.187,14.183
-9.921,-6.605,-31.000,15.968,-0.674,9.067,15.062,-32.943,-29.783,28.399,0.526,-7.427,15.620,23.801,-2.592,13.620
-10.072,-4.898,-19.404,13.585,2.804,9.581,13.853,-20.250,-18.065,27.081,-8.046,-9.420,21.616,20.708,-5.142,7.287
-8.067,-8.420,-6.213,1.982,9.592,10.020,10.731,-5.808,-4.983,20.624,-5.497,-4.641,15.985,20.250,-9.592,7.722
-7.801,-11.479,5.840,1.915,8.516,12.344,11.437,7.983,6.770,17.050,-10.265,-4.124,15.745,13.435,-7.366,2.582
-1.237,-13.910,13.227,-3.188,8.398,9.554,1.834,15.445,13.685,15.320,-13.239,-3.963,15.695,14.305,-8.262,5.256
-7.018,-16.432,14.263,-3.104,10.248,7.038,0.833,16.028,14.520,14.380,-15.469,2.014,12.177,6.730,-10.725,2.009
-0.257,-11.374,9.774,-12.098,17.687,6.066,-0.376,10.605,10.309,8.098,-18.352,9.589,16.891,-5.127,-8.842,-10.815
6.226,-15.145,0.566,-18.800,18.480,-3.221,-2.177,0.267,0.612,4.935,-18.709,4.759,8.838,-0.855,-3.629,-10.051
9.937,-18.771,-12.059,-16.428,17.360,-7.428,8.127,-12.986,-12.292,-0.341,-22.544,10.642,4.308,1.432,-0.834,-11.604
-1.980,-12.874,-24.019,-20.199,17.889,-5.714,13.617,-24.518,-21.807,-4.662,-22.355,10.179,-1.124,-0.331,0.499,-18.943
10.171,-13.392,-31.238,-19.513,18.141,-10.320,5.688,-33.468,-28.382,-2.039,-15.441,6.344,-1.697,-7.358,5.458,-19.222
11.775,-11.390,-33.996,-20.024,14.222,-10.338,-2.397,-35.853,-30.614,-2.042,-9.127,6.127,-3.391,-10.620,6.308,-18.118
12.704,-7.446,-28.421,-20.186,8.842,-14.792,-3.931,-30.412,-26.677,2.766,-8.351,-1.612,1.381,-12.450,4.666,-17.564
15.938,0.271,-17.476,-14.009,5.455,-11.058,-7.121,-18.575,-15.955,-0.688,-9.636,1.805,-5.109,-17.460,17.748,-15.408
23.287,-0.207,-3.129,-12.729,-0.714,-16.215,-17.840,-2.650,-3.044,0.184,-8.219,-0.395,-4.773,-12.614,19.237,-14.246
15.573,6.623,12.117,-1.394,-2.939,-21.864,-20.408,13.963,11.126,7.187,0.920,0.813,-7.737,-10.455,20.736,-18.653
15.901,10.240,23.957,2.335,-6.931,-16.056,-17.333,28.084,23.199,8.085,5.198,-0.967,-11.483,-1.468,23.592,-23.446
15.490,15.468,31.743,5.027,-10.641,-14.817,-17.628,35.171,29.622,3.646,10.277,-8.951,-7.260,-2.644,25.375,-16.616
16.588,16.036,31.925,3.478,-6.332,-11.607,-15.503,36.143,31.183,2.105,12.502,-14.092,-12.510,-2.466,28.276,-4.688
2.932,19.152,26.888,15.341,-18.562,-11.695,-10.105,30.377,26.286,2.828,14.033,-23.388,-6.795,1.870,24.212,1.994
-9.572,17.424,16.661,8.806,-16.862,-10.776,-8.203,18.603,15.996,7.377,14.345,-19.267,7.187,7.223,26.333,-5.405
-8.029,16.749,4.598,10.369,-15.708,-10.745,-3.894,5.489,4.874,7.049,12.498,-23.918,5.629,10.091,21.850,4.681
-13.716,21.714,-6.215,19.067,-16.375,-4.841,2.832,-6.678,-5.756,13.110,11.100,-20.146,8.296,10.806,21.278,6.673
-13.510,11.882,-13.611,23.783,-11.829,-6.652,5.095,-14.321,-12.359,22.410,8.797,-12.394,17.251,22.073,16.018,1.569
-16.586,7.325,-15.003,27.621,-6.159,3.135,2.649,-14.740,-14.331,12.419,3.054,-11.131,19.126,23.335,16.908,6.444
-23.469,-2.469,-9.721,27.777,-6.545,7.313,4.123,-9.909,-9.084,20.388,0.517,-17.645,22.684,21.269,16.540,13.364
-21.745,8.365,0.919,23.280,-4.885,9.484,16.842,0.408,-0.214,22.534,6.920,-17.276,21.706,24.396,12.958,10.706
-21.179,-0.143,49.588,26.321,0.612,11.715,20.335,54.413,47.609,19.266,8.525,-4.977,19.846,17.286,11.709,13.633
-26.710,2.952,61.965,26.511,2.797,12.604,18.624,68.315,58.897,27.538,1.349,-8.787,24.429,16.351,-3.483,15.133
-10.859,-6.580,71.478,18.225,4.475,20.988,25.111,79.516,67.835,19.765,-0.474,-5.720,31.664,12.671,-5.947,11.931
-7.165,-7.847,39.575,6.595,8.469,14.876,17.612,44.897,38.066,18.654,-3.660,3.045,29.314,18.325,-5.568,6.685
-16.345,-16.901,37.734,4.136,7.344,15.546,16.338,42.375,35.482,20.693,-8.962,9.500,27.288,17.410,-8.943,9.755
-13.713,-14.872,28.664,-0.063,10.608,7.900,17.626,32.395,26.518,15.815,-12.260,6.462,24.421,10.689,-13.454,0.334
1.159,-15.480,15.453,5.576,14.187,14.549,1.868,18.081,13.863,16.318,-11.316,7.493,24.071,3.242,-8.647,-4.580
6.598,-17.145,1.322,-6.659,19.253,13.978,7.688,1.207,-0.259,8.133,-14.746,11.165,16.583,2.222,-7.043,-5.105
7.935,-15.345,-12.157,-10.970,19.021,10.806,7.232,-12.708,-12.386,3.167,-10.934,11.613,15.482,4.543,-9.254,-9.351
5.904,-16.854,-20.233,-23.596,16.643,10.154,-3.206,-21.696,-19.854,0.032,-9.843,11.453,13.437,-3.735,-8.452,-17.835
9.339,-17.913,-22.238,-20.692,16.695,3.798,-1.740,-24.032,-21.545,1.025,-8.129,13.185,12.543,-6.174,-6.147,-18.330
17.006,-9.817,-17.791,-14.236,12.575,-2.143,-12.589,-19.554,-18.511,-0.011,-8.809,17.712,3.183,-15.625,-1.775,-14.687
14.059,-12.269,-8.893,-14.895,10.542,-6.448,-19.411,-9.734,-9.470,0.086,-2.805,19.798,2.106,-13.927,4.208,-17.031
14.491,-1.465,2.765,-20.318,13.520,-14.771,-21.372,3.357,1.419,-9.652,-1.351,7.982,-5.359,-14.543,10.064,-19.025
16.138,-2.189,13.976,-19.813,15.202,-7.722,-15.046,14.696,11.842,-5.968,-3.045,3.974,-15.359,-11.952,17.067,-21.679
15.937,1.197,20.736,-10.132,6.091,-8.179,-16.501,23.401,19.798,-3.173,2.222,1.396,-14.578,-13.228,18.533,-15.646
13.151,6.784,22.261,-5.074,3.393,-13.305,-13.355,24.726,21.030,-2.223,-0.121,7.474,-15.249,-8.097,23.782,-18.587
21.558,11.299,17.883,2.892,-3.124,-12.387,-16.656,20.067,16.392,5.688,5.241,-0.275,-16.627,-5.528,22.580,-16.929
18.820,15.212,7.622,4.816,0.480,-20.610,-13.919,8.097,7.344,6.437,11.480,4.661,-11.048,-6.533,21.974,-12.403
15.512,8.452,-6.475,9.870,-0.312,-16.291,-17.484,-6.136,-6.464,10.579,10.073,-4.637,-17.518,-1.119,20.038,-12.553
17.692,8.044,-21.160,20.050,-0.326,-11.109,-8.353,-21.621,-19.959,18.191,14.099,-7.500,-13.047,2.368,27.597,-5.417
4.740,9.313,-32.340,22.858,-8.758,-11.577,-0.708,-35.122,-30.881,25.936,10.648,-13.267,-10.694,4.997,24.691,-1.099
3.985,4.552,-38.673,23.616,-5.643,-0.849,5.901,-42.291,-37.141,21.871,20.042,-15.605,-12.188,1.692,17.425,1.613
-3.182,1.271,-38.291,25.432,-4.268,-4.720,3.649,-41.957,-38.174,29.363,15.579,-18.017,-6.377,5.421,16.557,6.741
-13.543,4.083,-32.191,27.666,-2.023,-3.506,9.954,-35.151,-31.416,25.027,18.528,-20.618,2.407,8.240,16.236,7.813
-6.858,-3.118,-21.690,26.515,-7.149,-2.944,13.937,-22.313,-20.188,24.942,20.547,-20.402,3.033,11.650,15.358,8.655
-13.968,-2.934,-7.950,29.748,-2.259,6.561,16.525,-7.410,-7.327,30.448,16.259,-21.117,5.285,10.203,15.705,15.181
-18.689,-3.587,3.928,33.079,3.577,11.421,19.563,5.901,4.574,23.997,11.810,-15.440,7.988,9.568,11.491,20.162
-19.505,-7.845,12.681,26.087,12.121,6.961,20.998,14.731,11.575,28.024,9.197,-11.375,14.117,11.298,7.961,18.220
-18.874,-9.496,15.567,23.595,14.280,13.661,16.114,17.746,13.383,28.472,13.493,-4.915,21.089,9.417,-1.785,22.186
-16.861,-10.305,11.373,16.094,15.280,8.653,21.515,13.175,10.888,28.177,2.644,-4.715,30.397,19.187,-3.098,12.823
-8.785,-15.921,2.392,13.812,14.875,3.607,15.178,3.131,2.465,21.377,-4.438,-0.206,25.892,19.783,-5.770,9.862
-4.264,-24.953,-8.725,1.734,17.052,4.525,18.535,-10.083,-8.788,25.481,-7.262,1.075,24.707,14.193,-10.127,4.632
1.440,-26.466,-20.478,-6.318,18.787,3.917,11.093,-23.038,-19.418,23.006,-5.687,6.761,20.593,-0.786,-17.424,13.508
-1.395,-27.584,-28.425,-4.282,20.738,-2.589,13.354,-31.776,-27.975,22.175,-1.954,6.498,21.900,4.981,-17.315,4.834
1.297,-19.586,-32.103,-11.887,29.470,1.196,12.792,-35.648,-30.322,18.312,-6.888,4.603,18.216,2.189,-17.146,0.165
2.596,-28.201,-28.616,-17.362,19.109,4.107,10.970,-31.818,-27.621,8.791,-10.022,14.449,15.826,-4.829,-13.504,-0.316
11.845,-25.711,-19.013,-18.333,21.794,1.026,-3.996,-21.112,-17.424,-2.746,-10.868,17.383,17.642,-2.890,-10.465,-8.320
17.413,-19.804,-5.948,-12.143,18.086,-3.763,1.039,-6.285,-5.077,-12.815,-12.966,17.792,6.565,-6.070,-3.688,-14.680
23.446,-26.794,9.102,-5.734,21.998,-11.764,-9.371,9.991,9.408,-11.571,-10.843,25.294,3.424,-19.616,1.745,-17.666
21.174,-17.997,22.055,-9.079,21.170,-14.863,-11.721,24.243,22.111,-6.386,-11.322,28.595,-5.952,-15.840,8.779,-18.174
19.553,-6.456,30.910,-9.414,20.871,-19.188,-14.943,33.863,29.371,-9.661,-0.503,24.655,-4.746,-12.131,4.314,-28.537
24.574,2.828,33.148,-13.133,12.004,-17.454,-19.183,37.045,31.610,-8.417,1.146,14.514,-9.960,-14.841,2.279,-18.250
24.425,-3.051,29.300,-9.173,7.207,-22.163,-26.232,31.970,27.399,-5.836,0.867,19.981,-9.920,-17.271,5.377,-15.401
24.855,-3.380,19.270,-7.272,5.429,-26.400,-19.116,22.147,18.421,-6.923,9.648,10.466,-12.450,-13.474,11.234,-21.168
26.649,0.938,7.214,2.454,6.320,-28.609,-24.943,8.740,7.771,-10.555,14.609,2.159,-10.896,-11.339,15.793,-13.590
16.895,-1.110,-3.372,7.393,4.114,-27.540,-27.278,-4.673,-2.955,-13.620,17.453,-4.517,-14.540,-9.556,16.076,-12.440
12.410,0.609,-10.760,5.708,-4.269,-20.017,-28.974,-13.081,-11.033,-10.858,13.010,-6.554,-6.366,0.774,16.914,-12.569
10.657,5.948,-14.175,18.169,0.290,-23.391,-20.628,-15.886,-13.728,-5.789,16.846,-11.307,-7.490,2.400,14.765,-2.014
12.025,11.857,-10.571,17.187,-1.173,-20.463,-15.707,-11.579,-10.027,3.449,21.608,-13.934,-2.007,-1.218,17.707,-4.868
-4.976,3.136,-1.081,19.468,-10.288,-22.657,-12.274,-1.151,-1.490,8.443,21.800,-16.385,-2.569,0.942,20.563,4.955
-17.723,5.633,11.214,16.055,-14.946,-14.386,-14.303,12.186,10.856,11.559,25.632,-21.400,2.194,7.182,22.085,0.998
-20.327,10.534,24.249,23.377,-14.937,-16.805,-11.233,26.611,23.137,12.875,23.275,-23.082,10.474,14.238,18.458,12.970
-17.441,5.754,34.357,25.747,-17.297,-13.165,1.811,38.478,32.658,17.540,22.356,-22.067,17.520,16.674,13.712,9.502
-16.997,4.401,39.208,23.863,-16.314,-14.164,11.614,43.991,37.576,19.723,18.443,-19.186,15.978,23.058,7.058,13.900
-17.775,4.227,37.690,28.407,-5.814,-6.761,24.676,42.463,36.220,16.218,17.392,-19.590,21.737,21.012,-0.197,12.047
-14.222,4.756,29.929,33.927,0.143,-3.948,28.772,34.216,28.494,27.028,11.812,-18.804,20.378,26.098,-1.292,8.371
-15.749,-9.495,17.508,31.363,4.633,2.231,13.697,20.625,17.112,26.176,11.153,-6.026,20.123,21.805,-4.577,8.791
-17.918,-6.432,3.810,22.258,8.831,3.778,9.972,5.123,3.318,28.727,4.148,0.168,18.143,16.959,-6.305,8.824
-16.356,-6.860,-9.701,17.446,11.809,4.806,19.513,-9.097,-9.594,26.475,2.693,-1.154,24.661,20.891,-4.719,10.128
-16.302,-10.531,-19.302,10.671,8.452,-1.443,14.789,-19.747,-19.053,30.027,1.048,2.507,24.220,18.708,-12.655,10.822
-12.048,-13.461,-21.956,3.892,16.698,-0.118,10.848,-22.897,-22.273,19.247,1.996,2.856,19.947,19.577,-20.747,2.740
1.785,-27.381,-19.149,0.024,19.337,-2.488,11.561,-20.412,-18.835,8.612,-7.858,12.433,13.762,16.572,-19.969,-4.257
1.340,-28.953,-10.563,-3.937,12.887,-4.752,10.867,-10.884,-10.092,7.390,-10.328,8.628,12.138,9.754,-20.986,-4.515
7.103,-23.663,35.623,-7.046,16.023,-9.789,8.942,39.923,34.891,1.494,-10.535,5.516,10.189,4.205,-14.458,-7.700
8.588,-25.285,47.303,-3.994,13.077,-7.743,-0.596,52.937,45.068,6.961,-9.077,12.447,6.871,1.664,-10.254,-11.617
15.920,-21.211,55.182,-7.160,17.954,-6.291,-10.780,62.836,53.156,-0.084,-9.976,13.660,8.660,3.450,-8.020,-18.385
16.173,-12.852,22.007,-9.725,18.683,-11.082,-18.739,27.214,21.840,-6.164,-9.800,20.021,7.420,-5.239,-4.240,-11.733
17.291,-14.845,18.979,-18.110,13.233,-17.931,-18.566,22.248,18.162,-5.057,-6.759,18.168,-1.141,-6.370,-2.284,-19.526
11.190,-7.503,9.435,-18.660,11.522,-22.610,-18.450,11.823,8.854,-6.529,-9.076,8.471,-0.631,-9.764,4.315,-18.426
11.782,-5.359,-4.126,-11.943,13.680,-22.139,-17.233,-2.784,-3.136,-2.272,-9.151,8.026,-3.643,-15.785,6.041,-25.286
19.690,-5.042,-18.478,-7.017,9.637,-23.346,-27.861,-19.137,-16.889,-3.329,-5.815,4.272,-3.587,-10.905,8.829,-20.742
22.441,-3.851,-31.357,-9.627,9.331,-26.129,-18.920,-33.353,-28.828,-0.977,2.558,4.241,-15.550,-5.964,14.362,-19.230
23.460,9.230,-38.328,-2.727,2.332,-32.853,-22.379,-41.576,-36.556,-0.768,0.781,0.793,-15.142,-0.145,16.482,-23.937
20.107,13.080,-39.929,0.983,0.721,-32.234,-22.092,-43.095,-38.182,0.218,7.960,-6.171,-21.168,2.041,15.692,-24.478
16.687,11.512,-34.847,4.467,-3.721,-21.087,-22.934,-36.547,-33.184,0.835,4.421,-9.671,-16.442,10.368,25.006,-26.706
6.834,10.021,-24.488,5.902,-4.034,-22.699,-12.172,-25.273,-22.867,1.869,7.600,-7.733,-8.433,11.283,23.848,-20.073
11.473,16.554,-11.159,9.190,-1.133,-22.285,-17.161,-11.493,-10.214,-3.814,12.574,-18.441,-12.858,14.032,19.086,-10.850
10.094,21.904,1.214,17.076,-4.517,-13.930,-15.889,2.285,1.680,7.097,16.571,-20.771,-10.224,11.714,19.148,-9.214
9.301,24.157,11.155,17.618,-21.984,-12.202,1.686,12.448,11.314,8.081,10.953,-17.593,-0.801,15.549,18.954,0.381
-0.491,22.461,14.452,25.259,-18.141,-7.509,-2.078,16.914,15.754,8.609,13.919,-17.332,4.952,22.745,17.375,-0.042
-6.452,17.610,12.290,22.085,-4.408,-2.625,0.695,14.452,13.365,5.808,15.291,-17.493,6.609,23.263,15.141,4.098
-8.802,19.255,4.219,16.114,-2.309,-3.793,11.040,5.157,4.839,6.835,11.685,-12.053,12.457,22.231,10.049,13.944
-8.962,20.693,-7.491,26.031,-2.286,0.260,17.275,-7.326,-6.072,14.615,14.685,-18.644,17.261,21.070,9.509,11.168
-8.294,3.317,-19.287,22.706,0.382,5.249,13.230,-19.955,-17.953,23.386,13.318,-17.147,22.706,20.936,5.439,8.998
-5.047,-2.435,-27.811,18.583,-0.126,5.876,22.021,-31.395,-25.985,24.636,6.276,-16.708,19.590,8.549,3.203,14.371
-7.737,-1.763,-32.473,19.608,2.047,5.145,24.316,-35.727,-30.412,22.497,4.734,-14.738,25.578,16.597,2.674,11.815
-4.632,1.400,-30.305,13.400,8.168,12.520,23.325,-33.795,-29.679,18.819,-2.438,-2.050,25.635,15.218,-4.429,12.723
-7.463,-17.483,-21.742,11.944,11.119,8.027,18.409,-24.238,-20.839,14.742,0.412,4.032,30.148,17.434,-0.447,10.250
-3.360,-12.237,-8.266,2.579,12.193,8.612,15.572,-10.044,-8.463,16.583,-4.564,8.803,25.874,10.608,-15.005,6.588
-7.871,-2.692,6.845,1.051,18.144,15.431,12.465,6.559,6.313,11.756,-3.475,12.152,24.180,2.714,-11.977,6.259
-6.894,-15.881,20.285,-6.726,15.580,10.661,14.417,21.680,19.461,6.264,-10.278,16.017,23.344,0.397,-21.099,11.283
-2.388,-27.823,30.505,-8.864,19.124,6.430,10.032,33.215,29.492,7.599,-15.106,18.740,16.324,0.026,-22.311,-6.595
-5.418,-30.509,34.193,-11.939,17.292,-0.461,4.772,36.298,31.384,9.288,-13.822,9.260,8.138,-2.353,-15.065,-5.365
6.788,-18.919,30.870,-7.286,23.561,-6.274,2.955,33.263,28.871,6.940,-16.155,11.427,9.930,-4.215,-23.474,-8.207
1.993,-11.841,22.027,-4.691,22.041,-7.855,-3.227,23.862,20.624,-2.089,-14.589,12.635,2.973,-3.227,-20.365,-8.085
5.298,-12.639,9.973,-9.263,22.702,-11.441,-10.597,10.974,9.609,-4.317,-12.527,10.692,1.169,-15.029,-7.856,-23.098
9.355,-14.878,-1.941,-12.385,13.027,-10.751,-15.250,-1.891,-2.904,-7.400,-6.366,3.219,-6.854,-14.979,-3.762,-21.438
15.797,-8.352,-10.103,-8.509,12.559,-15.360,-17.677,-11.739,-11.789,-3.943,-5.317,0.815,-11.941,-15.972,-2.310,-21.777
21.064,-7.857,-14.676,-9.264,13.183,-20.656,-27.322,-15.104,-15.269,-17.099,-0.389,1.050,-11.031,-15.563,2.157,-23.352
24.425,-8.333,-12.410,-5.041,8.888,-20.115,-24.807,-13.235,-13.447,-9.007,5.308,3.425,-15.219,-6.632,4.252,-30.453
16.491,-2.990,-3.556,-6.879,7.004,-18.781,-21.775,-4.251,-5.317,-8.962,2.777,1.516,-17.748,-9.046,0.322,-25.305
15.582,10.114,9.059,-7.687,5.077,-21.716,-21.475,9.998,7.785,-6.820,3.995,-1.703,-20.998,2.262,4.156,-23.247
13.589,3.365,22.640,0.424,-8.909,-18.442,-13.741,24.388,19.927,-8.259,5.932,-1.320,-23.621,-3.015,6.479,-25.836
14.356,1.961,33.281,0.173,-3.780,-12.595,-12.842,37.497,30.642,3.091,10.836,-3.408,-18.124,-0.107,6.385,-16.275
14.509,15.288,39.743,4.976,-2.557,-10.735,-11.472,44.184,37.870,7.454,20.797,-9.586,-12.779,7.753,5.206,-16.812
2.312,12.109,39.280,13.669,-2.033,-12.745,-5.413,44.689,37.037,9.940,20.680,-17.261,-5.670,6.767,4.789,-3.551
2.250,21.717,33.178,19.502,-9.474,-6.044,-6.907,38.780,30.334,11.431,20.054,-23.776,-4.259,14.880,5.336,-0.229
-1.025,18.483,21.134,23.218,-12.305,-9.833,-2.278,25.224,19.471,10.304,17.627,-27.331,-5.359,25.165,6.548,-3.379
-4.220,14.236,6.648,24.032,-14.358,-0.603,0.574,10.052,5.374,14.295,14.782,-26.605,-4.252,24.379,6.161,7.395
-13.054,21.372,-6.628,25.677,-15.805,4.938,5.612,-5.324,-7.660,20.157,17.562,-25.517,6.730,27.287,3.716,2.705
-11.646,7.414,-17.165,26.263,-2.981,4.192,9.937,-18.026,-17.886,22.321,11.632,-25.805,4.891,28.880,-2.097,3.045
-10.716,4.463,-22.416,25.073,-7.784,1.370,14.425,-23.989,-23.027,18.681,9.032,-26.060,-1.557,30.586,-4.219,10.863
-11.722,10.512,-20.838,25.509,-1.916,9.165,22.952,-21.501,-20.604,22.445,8.377,-18.756,8.535,31.141,0.235,20.786
-23.601,-1.892,-13.638,17.278,4.926,10.776,26.791,-13.905,-13.494,18.707,10.782,-15.342,15.502,24.576,3.081,18.348
-16.266,-11.864,-2.025,18.433,6.901,10.638,23.579,-1.638,-3.074,21.448,-2.276,-13.762,14.981,19.132,-7.627,16.523
-16.446,-11.630,10.003,17.681,5.639,7.084,27.548,11.013,7.328,20.280,-9.190,-4.330,15.027,17.000,-9.318,17.646
-14.932,-3.129,18.657,13.461,2.696,14.754,29.184,20.852,17.880,19.416,-17.188,-6.720,22.369,14.539,-11.516,10.847
-7.297,-8.360,22.524,0.128,9.929,11.276,21.833,25.243,21.248,17.470,-13.495,-1.851,18.820,13.293,-18.497,10.358
-1.272,-9.075,20.233,5.476,9.471,4.536,23.697,22.071,19.670,17.352,-13.983,-1.034,17.914,16.216,-13.249,10.246
4.464,-13.952,11.662,3.038,13.498,6.529,18.965,13.449,11.238,9.998,-16.689,5.363,11.117,12.116,-10.664,3.889
0.503,-6.583,-1.001,-0.136,14.112,-0.792,9.214,-0.184,-1.806,9.804,-21.741,8.123,10.659,9.944,-14.653,-0.867
8.961,-6.355,-15.046,-10.609,14.784,-5.060,9.083,-16.513,-15.313,0.217,-22.074,10.132,6.203,2.949,-10.734,-12.252
13.802,-7.478,-28.027,-10.097,14.564,-7.239,-5.938,-31.072,-27.408,-0.772,-16.522,8.616,3.517,0.932,-9.034,-12.145
12.179,-11.681,-36.333,-14.703,6.488,-10.643,-5.867,-40.747,-36.876,0.605,-21.057,10.602,0.049,7.006,-5.650,-7.981
11.346,-6.414,-39.200,-19.410,10.062,-16.126,-5.129,-44.003,-39.144,0.596,-16.057,23.052,-3.972,3.718,-7.445,-21.716
16.483,-6.767,-35.610,-16.822,10.527,-19.335,-8.079,-38.625,-35.061,-5.795,-11.937,14.357,-8.354,1.462,-0.258,-21.808
8.663,4.901,-26.052,-16.653,11.021,-23.740,-18.347,-27.698,-26.719,-0.899,-17.831,12.523,-13.776,1.389,-3.067,-14.298
19.490,4.204,22.266,-13.585,5.712,-20.696,-13.289,25.810,19.707,0.723,-10.141,7.789,-18.273,-1.486,4.849,-19.735
19.902,3.794,35.706,-16.066,3.713,-19.375,-13.908,39.704,32.561,3.812,-7.765,2.923,-19.559,-4.620,1.614,-19.855
19.557,6.126,45.166,-10.617,8.685,-23.547,-14.208,51.106,42.039,1.961,-1.947,-2.196,-18.410,-6.923,10.636,-17.955
15.916,9.314,14.277,-10.916,-0.444,-25.139,-18.693,17.276,12.698,5.753,2.021,-5.163,-18.489,-9.129,11.160,-8.169
8.867,8.045,13.089,-8.664,-9.785,-21.187,-10.297,15.083,10.174,1.868,4.302,-8.566,-15.358,8.439,12.028,-6.457
7.761,7.850,5.466,0.666,-1.619,-24.402,-8.529,8.049,4.127,14.377,7.720,-16.015,-10.303,7.817,17.096,-2.015
3.715,7.279,-5.146,2.059,-8.449,-22.364,-8.070,-3.925,-6.232,15.561,13.138,-21.854,-5.879,16.631,17.791,1.858
7.597,3.868,-16.827,15.800,-9.459,-17.474,-10.265,-17.832,-18.008,14.132,11.728,-17.444,1.759,15.838,12.805,3.135
-2.306,6.167,-26.694,25.383,-9.509,-9.916,-2.197,-28.394,-27.428,19.843,18.548,-16.105,0.125,19.717,13.775,11.378
-8.753,5.168,-31.583,21.411,-6.896,-6.005,2.554,-34.720,-32.480,16.116,17.413,-23.188,0.820,17.575,16.249,13.008
-13.422,7.301,-31.219,23.946,-4.945,-3.780,13.687,-33.115,-30.763,22.549,16.960,-17.570,4.628,14.903,8.304,10.347
-19.900,7.498,-23.875,29.873,-2.545,-2.502,15.175,-25.449,-23.280,27.654,12.591,-21.005,14.211,20.467,3.428,12.157
-25.042,-0.841,-12.229,19.630,-0.226,0.896,21.105,-12.192,-11.144,23.073,9.221,-22.781,18.322,20.149,0.966,18.360
-19.921,2.477,2.593,27.419,-0.214,8.498,17.210,4.523,2.957,27.824,5.111,-21.863,17.145,20.002,-0.645,15.900
-15.893,1.106,17.530,12.715,6.967,1.327,18.965,20.749,16.747,38.471,0.339,-13.107,25.119,19.967,-6.546,14.345
-25.204,-1.850,27.489,14.217,16.213,9.125,19.645,32.068,26.059,35.935,-2.465,-7.602,29.002,17.299,-11.016,17.502
-21.124,-9.355,32.293,8.301,16.026,14.693,21.949,37.339,30.960,35.557,2.964,-6.535,27.885,19.843,-6.808,19.803
-17.034,-11.931,30.575,2.289,19.313,15.240,18.515,34.736,29.163,29.413,1.712,-7.555,30.071,13.967,-13.152,19.400
-16.633,-15.523,24.038,2.334,18.219,6.402,13.851,26.246,21.683,33.794,-3.283,1.670,30.694,9.803,-17.463,16.534
-2.937,-16.150,13.094,-4.066,20.965,10.746,17.602,14.256,10.796,31.757,-5.903,-4.543,24.814,7.475,-26.685,10.833
-8.259,-19.710,0.108,-7.259,17.473,3.290,14.745,0.170,-1.383,29.907,-5.856,-3.717,19.120,3.622,-24.564,7.695
-7.475,-24.426,-8.869,-17.502,9.351,-1.689,6.362,-9.693,-10.163,14.234,-12.927,-4.140,18.557,1.679,-19.322,2.186
1.840,-24.443,-14.074,-26.792,13.560,1.957,5.708,-15.668,-13.786,15.033,-17.351,0.124,4.145,-0.234,-17.891,-9.878
3.223,-26.867,-12.890,-24.893,19.875,-3.700,-0.633,-14.602,-12.729,9.584,-15.677,6.273,9.598,-2.746,-16.731,-3.106
3.155,-23.617,-5.393,-24.455,16.810,-9.826,-0.624,-6.086,-6.194,7.007,-15.195,3.064,0.630,-0.908,-20.640,-11.439
13.680,-27.299,6.089,-25.576,12.576,-12.265,-6.883,7.381,4.897,7.698,-16.032,6.424,-6.613,-6.396,-13.057,-13.209
11.314,-19.902,19.806,-24.740,9.082,-11.499,-8.673,21.442,17.198,-4.841,-8.087,11.469,-12.047,-9.003,-7.939,-17.533
19.215,-7.374,31.736,-28.888,13.022,-18.525,-7.388,35.652,28.213,-2.460,-9.779,5.016,-15.696,-13.950,-13.263,-17.472
27.157,1.479,38.274,-23.873,7.465,-14.352,-9.170,43.433,35.162,5.888,-6.291,4.336,-13.205,-18.770,-0.891,-23.825
30.767,1.103,40.172,-17.894,4.093,-19.225,-12.058,44.273,37.945,1.488,-11.104,5.002,-17.319,-16.280,5.433,-24.040
34.399,7.984,34.209,-16.806,-0.929,-19.317,-11.458,38.949,32.125,4.221,-5.855,1.459,-16.338,-17.501,10.358,-20.023
27.839,6.521,23.522,-9.488,-3.629,-24.089,-8.001,27.108,22.864,4.753,-9.014,-10.449,-9.311,-6.421,7.971,-22.818
24.869,19.525,9.398,-1.278,-0.906,-22.887,-6.514,11.582,9.223,7.629,1.432,-13.965,-18.480,-6.987,13.700,-16.833
15.628,13.401,-4.896,2.579,2.007,-21.292,-6.317,-3.949,-5.129,11.518,8.182,-2.594,-16.226,-9.890,19.777,-18.822
12.292,12.909,-16.158,-0.326,-12.171,-15.417,-9.950,-16.429,-16.189,14.472,10.425,-14.241,-21.540,-1.467,16.955,-11.914
10.299,10.258,-21.983,4.826,-8.170,-6.812,-5.185,-23.320,-21.550,14.792,18.288,-15.496,-10.919,4.472,16.857,-12.181
10.190,7.057,-22.261,6.801,-2.393,-13.457,0.098,-22.601,-21.008,8.739,14.005,-23.821,-4.577,2.338,10.522,-9.135
5.241,12.229,-15.006,14.467,-4.967,-14.159,9.023,-15.456,-14.779,6.459,9.120,-19.274,-2.329,3.316,13.225,-6.868
-0.788,0.863,-4.766,15.345,-9.533,-10.992,4.930,-4.333,-3.979,17.162,14.066,-22.934,-3.888,14.511,6.926,2.622
-4.150,-2.507,7.182,15.258,-11.391,-5.181,8.551,9.442,6.518,22.179,15.738,-27.064,4.877,15.703,7.187,5.334
-5.180,-3.410,16.561,14.950,-3.266,0.055,13.855,20.465,16.108,22.822,16.461,-19.285,14.849,12.009,6.487,9.985
-10.560,-4.517,22.512,14.048,-2.822,5.210,21.176,26.106,20.323,20.583,12.870,-20.563,14.447,13.855,8.377,13.507
-24.362,-2.054,21.774,10.876,-2.124,7.439,16.566,25.313,19.018,18.372,7.609,-18.617,10.905,10.919,4.036,11.339
-15.633,-4.735,14.305,6.626,-4.513,10.572,15.215,16.870,13.015,26.822,5.068,-16.301,11.654,8.994,-5.512,7.108
-9.880,-3.651,2.450,-1.341,1.237,13.304,18.562,3.102,1.188,27.096,-0.028,-9.668,13.096,12.653,-6.792,9.910
-12.484,-11.345,-12.436,-8.227,10.203,17.000,22.368,-13.857,-12.674,28.089,-1.348,-2.842,23.229,-1.565,-15.104,16.987
-19.985,-16.449,-26.559,-7.738,7.556,13.102,14.182,-28.203,-26.349,21.835,-5.904,-4.284,22.742,-1.145,-15.601,9.689
-9.446,-16.892,-36.078,-1.133,8.598,17.932,16.694,-38.770,-35.364,13.235,-8.381,5.773,16.864,5.184,-17.659,3.999
-9.848,-24.686,-40.161,-1.225,10.245,13.133,4.361,-43.234,-39.577,16.765,-9.615,4.393,7.844,1.391,-12.527,0.461
-8.654,-22.766,-36.831,-14.158,16.312,9.137,-0.744,-40.979,-36.763,11.161,-12.764,0.031,7.024,1.128,-15.484,-1.769
0.695,-26.656,-28.500,-23.254,13.233,8.169,-2.469,-30.663,-27.922,11.008,-16.170,1.746,8.504,1.498,-14.170,-2.272
6.677,-23.130,-15.550,-21.216,13.868,0.910,-0.921,-17.218,-15.646,9.078,-12.809,-0.691,7.732,-11.910,-10.885,-13.220
4.463,-19.206,-3.239,-24.148,9.859,-0.982,2.057,-3.095,-3.434,10.167,-9.560,5.618,6.327,-11.295,-11.190,-11.176
14.126,-20.213,8.411,-22.902,12.172,-6.790,-6.060,9.249,7.520,-2.292,-12.279,3.464,1.675,-19.077,-9.379,-16.844
14.351,-16.687,14.742,-16.618,13.660,-9.519,-7.033,15.379,12.712,6.657,-10.844,1.811,-12.088,-15.817,2.530,-20.376
13.409,-15.841,14.362,-22.280,9.241,-13.881,-11.441,15.676,12.484,4.667,-10.519,4.739,-13.381,-13.112,7.112,-20.121
14.315,-11.014,8.089,-18.249,3.128,-18.221,-17.658,9.196,6.702,-1.651,-2.134,1.645,-9.124,-11.295,5.817,-18.994
19.101,-0.734,-1.580,-16.238,-2.060,-15.553,-19.935,-1.422,-2.806,-1.983,0.019,1.546,-14.109,-11.187,10.049,-17.449
19.575,8.957,-14.094,0.070,-6.976,-18.573,-20.813,-14.464,-14.717,6.829,5.750,0.099,-22.402,-11.505,15.935,-21.290
15.039,8.388,-24.346,-7.499,-1.320,-23.086,-16.239,-26.593,-24.748,2.154,4.083,-0.843,-25.022,-6.398,18.594,-21.206
9.789,4.641,-30.901,-0.358,0.477,-30.070,-17.982,-33.787,-31.335,-6.090,3.886,0.403,-13.886,1.427,25.346,-14.567
5.986,8.438,-31.481,3.603,-5.364,-25.981,-15.987,-35.381,-32.396,7.614,9.698,-6.550,-8.426,-3.422,28.671,-14.482
2.590,8.292,-24.650,5.197,-5.406,-25.745,-14.313,-29.423,-26.914,11.435,13.841,-13.176,-6.996,2.255,30.486,-20.620
-3.802,17.364,-12.789,18.399,2.241,-26.856,-9.229,-16.071,-15.243,15.010,9.630,-21.878,-4.749,1.669,25.624,-12.401
0.689,16.197,37.018,16.768,-1.686,-21.214,1.809,39.565,33.630,17.575,11.758,-21.451,-9.526,6.545,20.767,-7.396
-5.952,12.878,52.058,26.981,-7.755,-14.648,11.030,56.380,47.417,23.436,14.361,-20.938,3.153,14.409,17.160,2.255
-20.958,18.892,63.202,22.674,-4.407,-15.504,13.106,69.186,57.945,29.151,12.808,-16.969,6.141,17.473,21.742,10.102
-16.065,17.404,33.126,26.516,-2.745,-7.402,19.299,36.419,30.175,24.998,13.662,-28.269,7.359,18.311,18.175,8.532
-20.713,9.656,32.725,25.925,-1.862,-5.064,24.668,35.909,29.882,27.296,10.746,-18.904,10.339,26.300,13.606,13.946
-26.828,6.422,25.983,26.025,0.763,-1.427,23.863,29.120,23.506,24.004,6.514,-18.167,8.845,35.225,9.648,11.606
-11.988,2.210,15.650,29.168,10.270,10.879,27.398,16.457,12.728,29.692,4.551,-12.143,13.668,24.743,9.729,19.438
-6.935,-1.466,3.138,13.496,9.741,10.117,27.780,3.717,1.181,31.250,5.694,-15.036,20.308,25.460,4.771,15.616
-14.932,-3.053,-7.248,11.352,6.749,1.383,25.534,-7.796,-8.914,24.593,1.119,-10.305,21.972,26.077,5.436,20.660
-19.637,-4.627,-13.218,11.894,11.653,4.925,19.228,-13.979,-14.643,24.371,-7.046,-1.982,20.954,30.345,-0.495,22.835
-17.465,-7.243,-13.206,7.697,20.114,11.552,16.893,-14.523,-14.159,31.089,-14.646,-7.532,25.239,24.218,1.278,14.965
-5.574,-12.787,-6.664,-4.007,20.873,10.458,22.293,-7.626,-8.394,25.611,-13.655,-1.972,28.676,23.700,-4.980,10.747
-7.640,-12.268,4.475,-3.235,23.437,10.510,16.369,3.514,2.274,22.865,-18.773,4.421,26.218,21.109,-2.647,5.880
0.519,-10.189,17.236,-8.474,25.906,6.899,7.888,18.004,14.623,20.813,-20.129,2.201,15.575,23.197,-4.355,0.854
2.430,-13.667,29.999,-5.260,20.208,1.203,7.762,31.943,26.731,13.378,-13.520,7.156,13.603,12.181,-4.536,-4.149
5.998,-14.237,38.535,-11.694,21.782,1.915,-11.778,41.078,35.247,7.237,-10.760,12.165,14.018,5.286,-8.112,-13.329
8.719,-12.686,40.974,-9.563,25.135,-0.761,-6.953,44.697,38.913,-7.774,-17.211,0.925,9.690,7.043,-5.055,-11.077
13.022,-13.484,36.804,-21.506,21.801,-4.733,-7.652,39.978,35.037,-5.053,-14.764,4.912,-1.704,-3.683,-3.142,-15.160
14.231,-11.715,27.332,-19.672,17.013,-8.901,-9.659,28.284,25.901,-4.878,-14.430,3.793,-0.852,-1.834,-1.725,-27.782
16.715,-9.669,14.045,-23.121,19.898,-14.529,-12.969,13.478,12.275,-8.720,-8.776,6.165,0.666,6.268,4.466,-17.333
24.947,-3.011,0.168,-21.020,20.784,-15.998,-14.058,-2.415,-2.353,-2.820,-8.468,4.686,-3.059,1.572,5.126,-18.587
19.800,-6.024,-12.887,-14.788,20.326,-10.777,-10.039,-15.410,-12.781,-6.753,-2.608,0.851,-5.554,-1.241,15.196,-19.567
11.060,-9.958,-19.938,-9.895,14.803,-14.939,-19.259,-22.686,-20.168,-8.020,-5.036,-5.423,-11.386,-1.109,13.822,-20.847
15.947,-2.281,-21.128,-8.983,15.009,-13.778,-13.569,-25.324,-21.067,-10.675,6.848,-6.800,-16.485,5.687,21.791,-16.452
17.366,7.865,-15.478,-9.235,13.311,-18.147,-13.241,-18.798,-15.722,-14.834,11.374,-9.697,-18.345,4.895,18.932,-21.128
7.995,-2.257,-6.049,-7.028,7.154,-17.596,-13.277,-7.597,-7.021,-11.203,12.259,-11.950,-19.929,0.883,22.748,-15.853
5.796,0.271,5.768,-3.395,2.224,-16.667,-9.673,4.785,5.044,-4.133,13.999,-14.667,-13.740,6.735,21.034,-11.529
-0.752,5.165,16.023,16.089,5.100,-14.723,-12.111,16.527,14.495,-4.647,16.564,-10.963,-15.944,16.818,17.045,-8.361
5.339,9.971,22.726,20.291,2.939,-12.453,1.024,23.103,21.120,7.640,18.148,-9.134,-12.759,19.529,13.079,-1.844
-6.205,18.664,22.814,12.277,-2.494,-9.215,3.250,23.942,21.469,9.513,16.489,-20.872,-0.389,17.128,18.097,-2.821
-11.859,11.914,16.645,12.696,0.773,-11.781,-2.304,17.194,15.022,18.547,17.093,-24.158,8.694,23.158,22.826,5.977
-4.116,15.992,6.037,14.604,1.624,-1.943,-3.385,4.533,4.397,17.282,11.846,-19.203,9.164,25.696,18.087,8.344
-7.075,13.811,-8.155,7.176,1.578,-2.048,4.902,-11.118,-8.356,15.100,13.109,-21.396,12.846,23.792,11.833,14.043
-15.645,15.668,-22.705,18.000,4.053,-1.759,11.938,-26.378,-22.384,16.833,10.621,-23.992,16.685,29.302,-2.191,17.241
-10.541,6.784,-33.336,21.460,13.055,0.475,15.540,-38.722,-32.469,17.652,5.150,-26.135,22.241,32.681,-6.934,22.715
-18.620,1.818,-38.826,15.929,17.049,3.851,15.700,-43.890,-37.538,28.219,2.317,-18.776,30.933,28.582,-7.455,27.493
-23.283,-5.147,-37.682,14.054,19.853,12.256,12.101,-42.844,-36.705,21.466,-0.081,-16.896,30.303,21.413,-10.921,28.291
-15.662,-8.412,-30.299,14.497,20.584,13.602,2.867,-34.657,-29.344,17.100,-2.092,-16.821,30.529,24.699,-19.249,19.646
-14.454,-21.233,-18.658,9.550,19.567,16.258,11.605,-21.315,-18.406,21.658,-5.155,-8.848,26.846,17.858,-12.553,18.840
-8.857,-23.393,-5.242,-2.810,18.569,13.941,17.769,-7.037,-5.815,18.401,-13.724,-6.145,27.865,17.695,-12.157,13.321
-2.478,-20.926,6.112,-8.237,21.063,11.917,23.665,5.613,5.654,16.884,-14.170,-2.801,23.505,9.504,-10.931,11.695
0.200,-21.357,13.216,-15.004,28.954,10.860,15.747,13.516,12.614,12.946,-16.148,3.830,17.925,5.168,-18.092,8.752
-7.851,-28.404,14.576,-15.212,25.558,7.527,5.440,14.909,13.435,6.608,-12.543,11.826,22.548,3.935,-19.823,4.210
3.395,-22.240,9.858,-15.967,21.321,7.764,1.797,10.256,8.646,0.529,-16.911,9.463,13.200,7.387,-22.696,6.044
14.502,-25.820,0.449,-14.131,26.118,8.521,1.593,-1.064,-1.251,-2.132,-17.719,20.884,9.808,0.764,-25.958,-1.212
14.386,-27.448,-11.700,-21.919,26.430,-1.706,-1.359,-14.855,-13.147,-2.062,-19.706,18.195,8.470,-3.426,-24.955,-2.389
15.969,-13.648,-22.577,-26.814,22.383,-5.586,-12.740,-26.799,-22.962,-10.966,-15.154,12.915,8.264,-3.256,-10.480,-12.899
12.503,-12.674,-30.044,-24.163,13.961,-9.503,-12.560,-34.710,-30.589,-12.866,-13.689,16.927,1.300,-6.940,0.643,-10.816
7.132,-6.776,-31.701,-15.665,13.832,-10.119,-14.674,-36.532,-31.774,-10.092,-13.651,16.802,-3.521,-5.537,4.187,-16.046
8.339,-11.653,-26.680,-11.997,15.035,-12.533,-16.121,-30.656,-26.279,-11.282,-13.657,23.089,-7.776,-6.437,4.361,-16.072
9.209,-3.436,-15.980,-12.528,9.220,-11.086,-27.668,-19.113,-16.992,-15.325,-7.890,16.197,-3.069,-10.349,3.356,-12.258
12.149,-3.150,-2.006,-5.422,10.402,-15.142,-21.483,-3.620,-3.824,-9.554,0.025,6.033,-9.628,-6.950,5.254,-6.907
16.752,-4.247,13.633,-1.965,10.857,-16.053,-26.386,12.573,11.174,-5.582,-3.226,6.398,-3.518,-6.333,13.542,-14.463
10.398,-2.155,25.415,-5.058,1.878,-21.674,-24.696,25.434,23.067,-4.381,0.052,6.201,-8.251,-6.908,16.777,-7.729
5.032,-2.674,32.772,3.945,1.052,-21.685,-27.163,34.430,29.502,-0.439,1.827,1.100,-9.102,-7.549,20.965,-12.696
7.939,-1.603,33.736,7.607,0.866,-19.809,-27.247,35.051,29.717,13.017,5.888,-7.273,-14.034,1.473,19.925,-10.353
-2.761,-1.590,28.640,2.232,0.612,-21.153,-22.428,29.649,24.916,11.421,13.074,-6.024,-5.816,1.946,15.604,0.599
-4.780,1.866,18.169,4.273,-4.638,-21.152,-22.011,18.882,15.545,10.987,7.199,-9.474,0.063,-1.376,16.922,6.734
-14.281,2.464,6.336,15.810,-10.174,-12.581,-11.363,5.778,4.435,12.218,11.475,-14.384,8.044,7.640,13.654,10.284
-16.797,3.315,-4.900,22.427,-8.181,-15.957,-16.291,-6.654,-6.178,12.271,9.464,-21.816,5.982,17.153,8.513,18.479
-15.770,-2.261,-11.335,23.798,-10.442,-2.428,-8.874,-14.367,-12.778,12.603,13.623,-30.947,8.288,17.840,7.816,16.520
-14.034,-3.368,-13.216,21.204,-9.149,8.105,7.619,-15.640,-13.846,23.867,11.135,-33.088,12.926,19.225,8.569,16.421
-19.210,-5.611,-7.613,17.925,-5.803,3.039,10.554,-10.928,-8.817,15.293,8.707,-28.830,13.769,16.059,4.564,18.702
-19.604,-1.081,2.191,19.337,0.437,2.315,21.251,0.946,0.519,17.393,2.429,-20.307,16.244,15.039,1.497,22.221
-20.012,-3.939,50.674,23.064,-4.832,3.758,11.867,54.701,47.317,14.265,0.692,-19.246,22.026,19.818,-4.744,23.206
-17.104,-12.690,63.421,21.980,2.823,4.195,11.906,69.185,58.999,16.533,-0.532,-18.481,21.949,14.606,-8.571,24.226
-16.546,-18.812,73.430,11.972,2.519,4.570,13.309,79.576,67.987,21.525,-6.885,-8.048,23.378,17.649,-10.698,27.195
-8.609,-18.532,41.349,9.065,10.877,6.321,26.935,44.538,38.922,20.955,-15.004,-8.499,28.102,21.464,-14.200,17.583
3.427,-27.240,37.841,5.501,14.275,12.865,26.057,41.686,36.250,7.631,-10.589,-5.085,28.106,11.355,-18.208,18.516
2.581,-30.805,29.486,1.002,19.574,6.277,16.880,31.690,26.985,4.454,-11.720,-7.533,20.278,3.650,-20.223,20.178
9.817,-37.185,15.969,-11.104,26.456,5.739,8.879,17.654,14.668,8.309,-11.883,-3.656,16.224,2.565,-20.082,7.862
6.631,-33.476,2.449,-5.438,20.868,6.827,-0.588,1.573,1.339,1.962,-16.720,0.984,14.512,0.219,-19.800,5.712
17.992,-33.861,-10.712,-9.534,21.606,-1.124,3.467,-12.578,-11.297,-5.946,-18.401,3.296,10.744,-4.884,-17.932,-0.673
17.645,-22.728,-19.290,-2.187,24.295,-7.083,-1.350,-22.309,-18.573,-7.690,-13.651,4.496,14.571,-6.313,-17.811,-6.993
11.662,-23.947,-21.363,-6.141,19.108,-13.975,-11.074,-24.599,-21.078,-13.224,-14.034,-0.055,2.059,-10.663,-16.411,-6.895
13.992,-13.469,-17.010,-11.039,18.701,-21.238,-7.717,-19.710,-16.817,-19.873,-11.809,3.344,3.264,-12.959,-12.986,-17.397
19.934,-17.017,-8.734,-4.168,25.252,-19.549,-17.678,-10.505,-8.507,-16.840,-12.907,11.717,-0.685,-14.238,-10.906,-21.019
23.288,-4.853,2.806,-5.706,18.294,-21.941,-9.645,1.437,1.713,-11.775,-8.553,12.834,-6.738,-7.490,-6.099,-13.060
16.902,0.360,14.133,-3.393,14.415,-16.259,-19.270,13.302,12.450,-16.349,-5.156,5.965,-8.219,-5.442,-6.403,-12.538
24.559,3.544,21.032,-5.957,12.922,-13.095,-23.043,21.818,18.677,-19.062,-4.139,7.619,-12.330,-7.496,-2.898,-18.467
20.962,0.765,22.602,3.841,6.797,-18.525,-28.989,23.505,20.819,-16.610,-4.708,1.000,-10.857,-7.386,3.374,-23.253
19.349,5.610,18.296,-3.689,10.458,-15.693,-17.900,17.832,15.943,-13.998,0.808,-6.701,-6.578,-2.051,5.632,-14.758
12.947,8.711,8.371,-1.893,2.700,-18.324,-14.887,7.101,6.002,-13.505,8.744,-9.029,-11.990,-6.014,10.060,-6.304
9.899,4.443,-5.383,-2.463,-0.112,-12.048,-12.949,-8.006,-7.677,-11.947,13.382,-10.549,-11.710,-1.526,15.592,-6.302
4.302,6.416,-20.015,6.187,-2.282,-14.651,-0.847,-23.177,-20.846,-13.177,8.562,-10.813,-5.902,5.155,18.043,-1.668
-3.886,4.997,-31.605,14.439,-4.533,-13.302,2.772,-36.916,-32.097,-5.875,10.346,-15.957,-3.566,9.638,17.080,3.440
-6.751,8.940,-37.792,11.135,-4.386,-8.556,0.288,-43.529,-38.667,5.069,6.638,-27.152,0.705,9.188,22.743,2.686
-9.609,10.401,-38.245,14.958,2.381,-9.806,4.001,-43.698,-39.032,5.504,10.423,-25.713,-0.468,12.354,14.792,14.386
-12.871,5.980,-31.889,17.520,0.861,-8.608,1.105,-36.704,-32.383,2.505,15.807,-22.066,2.075,13.218,12.416,19.791
-12.400,2.788,-21.038,13.292,3.367,-4.528,10.138,-23.721,-21.463,8.412,7.924,-20.573,-1.279,18.565,14.221,25.147
-17.878,-4.619,-7.618,12.995,1.011,9.807,10.718,-9.240,-8.158,9.854,8.691,-23.293,2.481,18.847,13.214,22.099
-23.451,-14.880,4.645,21.969,2.083,7.592,8.689,4.404,3.755,8.589,7.175,-23.221,10.897,23.440,1.834,20.302
-19.003,-13.349,13.116,11.539,3.137,9.100,21.170,12.969,11.759,7.624,8.606,-21.527,14.725,31.385,2.350,24.175
-18.858,-8.262,14.915,19.541,8.153,8.021,25.491,15.861,13.892,15.888,3.054,-10.887,18.627,21.322,-9.569,29.063
-23.158,-9.270,10.983,8.226,9.161,4.217,32.424,11.634,10.471,15.868,-2.025,-8.832,19.495,28.146,-12.711,21.750
-18.271,-13.807,2.374,12.700,14.126,12.384,29.331,1.828,1.982,13.161,-0.904,-8.085,26.609,20.474,-16.277,23.531
-11.732,-17.663,-9.113,9.361,22.690,7.584,19.442,-10.941,-9.082,9.377,-6.935,-8.814,23.554,15.471,-16.396,19.301
-8.077,-18.932,-21.283,15.078,18.240,0.599,16.094,-24.282,-20.107,15.425,-8.060,-6.413,30.028,18.092,-20.655,20.334
-6.257,-18.008,-29.412,2.316,22.970,3.738,8.092,-32.924,-28.677,9.300,-11.229,-1.257,31.005,19.848,-22.066,17.452
-2.261,-20.611,-32.897,-8.071,16.373,8.144,12.336,-35.864,-30.441,4.165,-14.062,3.583,16.602,10.192,-26.362,14.032
3.004,-26.539,-28.937,-6.020,13.234,6.099,2.846,-32.297,-27.614,4.819,-16.464,0.406,16.653,3.001,-21.038,6.710
8.163,-26.284,-18.968,-6.557,14.800,-3.674,0.750,-22.613,-18.386,-7.296,-16.559,5.517,16.545,-6.852,-19.817,-0.890
17.973,-22.177,-5.299,-12.144,14.179,-11.194,1.578,-6.218,-6.341,-7.665,-9.959,4.468,9.687,0.316,-17.488,3.107
13.186,-18.666,9.888,-16.054,9.097,-12.054,-0.203,10.625,7.546,-17.587,-17.536,15.964,3.702,-7.099,-6.811,-1.566
14.457,-21.030,23.152,-18.413,5.579,-18.319,-10.357,24.812,20.591,-19.206,-17.674,9.957,5.054,-15.934,-5.776,-1.267
22.094,-12.016,30.483,-7.829,-0.912,-14.499,-16.978,33.559,29.540,-15.598,-13.377,-0.075,3.421,-15.640,4.512,-5.958
18.981,-13.956,33.262,-12.106,-2.903,-22.063,-13.252,36.421,31.489,-15.122,-11.982,1.769,2.281,-10.249,4.246,-9.382
23.111,-4.988,29.637,-8.565,-8.048,-21.569,-11.909,31.713,26.678,-11.643,-5.785,-1.293,-8.047,-16.096,3.906,-16.982
19.532,8.048,19.843,-0.172,-9.421,-12.562,-16.354,21.202,18.640,-10.015,-2.661,1.327,-4.324,-12.126,10.428,-19.375
12.090,0.852,7.857,0.568,-1.541,-15.614,-15.414,7.010,7.309,-9.200,0.253,-0.800,-11.050,-13.420,13.712,-14.309
12.706,1.167,-3.698,3.819,3.228,-13.552,-7.852,-5.110,-4.540,-14.456,0.777,-5.101,-13.026,-12.856,12.622,-15.183
7.001,10.447,-11.580,5.018,-4.631,-16.556,-3.803,-13.561,-11.579,-6.583,4.614,-2.038,-1.036,-11.015,5.593,-18.815
4.061,11.082,-13.761,3.994,-12.466,-12.313,-5.983,-16.394,-14.596,-0.873,11.054,-9.709,2.879,-6.351,6.510,-5.812
-4.295,14.064,-10.141,8.272,-8.410,-12.225,-1.618,-12.219,-11.071,4.598,10.603,-23.204,2.469,-1.722,10.704,1.975
-2.904,19.160,-0.675,9.121,-8.556,-7.637,-0.761,-2.866,-1.317,-0.663,12.658,-25.029,8.166,3.510,6.414,-1.520
-6.736,12.542,11.270,14.655,1.281,-6.434,9.599,11.464,10.845,3.017,12.399,-29.773,13.925,2.361,10.031,9.293
-9.519,18.735,24.822,13.934,-0.295,-1.428,14.475,26.391,23.574,12.211,12.590,-24.919,16.035,9.093,11.802,15.908
-17.142,4.196,35.662,22.046,-8.427,0.018,14.746,37.473,32.922,16.104,9.954,-26.460,20.052,10.036,-0.039,23.004
-10.003,4.299,40.272,25.339,-10.485,3.985,9.189,42.889,37.643,23.537,6.959,-24.452,24.404,13.804,-2.548,23.634
-17.794,3.420,38.913,21.512,-6.790,8.670,15.418,41.379,36.580,19.316,2.563,-28.819,24.005,19.136,-5.718,16.273
-17.466,1.019,31.625,20.299,-11.751,7.434,19.506,33.675,29.363,22.202,1.697,-25.629,25.107,12.553,-9.737,14.889
-17.291,2.222,19.011,17.967,-5.309,7.250,23.537,19.623,17.801,20.758,-1.447,-16.928,27.984,12.495,-11.475,17.071
-23.800,-11.178,4.561,16.504,-4.970,7.791,21.882,5.101,4.027,15.948,-7.017,-21.166,22.065,10.709,-7.534,12.987
-19.745,-10.152,-9.327,6.062,6.032,10.846,30.494,-9.245,-8.039,12.907,-6.939,-14.567,27.410,8.202,-8.719,17.623
-16.784,-14.245,-18.375,-3.569,9.485,10.080,16.870,-20.075,-17.262,13.090,-9.175,-10.018,30.169,1.520,-12.675,16.768
-9.606,-12.633,-21.344,2.865,8.585,12.025,10.890,-24.364,-21.913,9.754,-16.938,-11.958,21.598,6.009,-21.131,17.658
-11.313,-8.689,-18.287,-1.087,16.326,14.654,9.337,-21.099,-18.109,2.838,-22.656,-7.438,21.749,-1.172,-26.245,9.120
-3.740,-14.176,-9.900,-6.524,14.959,9.245,4.394,-12.017,-10.124,1.295,-19.230,0.125,19.539,3.755,-26.387,4.497
-6.286,-21.376,36.610,-6.137,11.513,8.097,-11.948,40.221,34.476,-2.611,-19.206,4.238,19.033,0.066,-29.572,-4.139
4.990,-13.048,48.065,-4.651,16.718,4.954,-7.001,52.879,46.014,-4.812,-20.375,1.227,7.570,-2.807,-23.008,-3.351
5.956,-17.520,55.983,-6.971,14.136,4.673,-8.766,62.956,53.871,-11.083,-24.366,-2.284,8.923,-8.110,-22.726,-6.983
9.069,-14.820,23.244,-14.873,10.662,-0.736,-5.442,26.104,22.809,-12.042,-29.606,0.053,-1.507,-10.978,-12.963,-9.136
15.271,-17.088,19.908,-13.879,13.532,-2.511,-8.473,22.493,18.764,-15.136,-23.913,-1.175,-5.483,-16.119,-10.012,-12.345
16.269,-19.435,10.841,-16.186,8.645,-6.799,-14.628,11.461,9.192,-17.351,-22.392,-2.971,0.229,-13.327,-9.501,-10.790
10.534,-12.451,-3.080,-12.559,6.364,-6.414,-28.755,-3.791,-3.160,-15.371,-25.455,-5.139,-4.318,-7.263,1.452,-15.438
12.898,-12.067,-17.235,-3.373,-0.560,-6.866,-21.807,-20.278,-17.608,-15.534,-27.350,-6.192,-6.312,-13.418,0.450,-15.928
11.718,-2.871,-29.423,2.877,-1.798,-8.012,-21.147,-33.817,-30.017,-18.275,-20.377,-2.374,-8.997,-19.193,5.942,-15.504
11.967,1.483,-37.693,-6.237,-3.917,-17.302,-17.571,-42.252,-36.864,-11.295,-7.496,-10.485,-11.553,-12.161,11.211,-13.784
8.581,-0.286,-38.709,-2.587,-7.591,-14.781,-26.976,-43.114,-38.390,-1.833,-2.314,-13.779,-7.996,-11.563,14.780,-14.015
2.789,2.512,-33.678,6.857,-18.359,-15.441,-19.063,-37.378,-32.663,-8.069,-1.765,-14.330,-16.149,-7.888,14.886,-8.863
2.697,12.451,-23.157,14.948,-21.802,-10.872,-9.961,-25.844,-23.704,-2.999,-2.778,-10.086,-11.634,-10.785,13.487,1.045
1.624,9.977,-9.847,13.718,-23.072,-11.086,-1.933,-12.525,-11.189,2.322,1.072,-23.784,-1.893,-8.933,17.942,-3.720
4.363,7.995,2.665,15.448,-24.463,-8.984,-4.825,2.403,0.918,9.419,5.206,-26.654,0.715,2.584,9.011,0.353
-10.688,6.495,12.592,20.527,-24.076,-6.387,-6.506,12.806,10.209,12.560,1.601,-32.219,2.823,-1.120,8.789,8.304
-13.754,13.420,15.969,18.786,-22.903,4.038,4.673,17.996,14.053,16.553,3.157,-38.344,7.317,2.794,6.763,11.462
-11.937,9.049,13.066,22.021,-16.197,-0.188,8.298,13.814,11.387,14.933,2.295,-31.702,6.075,4.900,6.399,16.900
-16.792,0.279,4.768,15.354,-12.845,0.792,12.932,4.657,3.769,22.947,3.245,-28.420,10.768,12.013,5.812,6.289
-17.900,-1.280,-7.044,13.643,-11.068,6.200,10.239,-8.287,-7.261,27.884,0.145,-31.255,19.017,11.665,-1.251,11.585
-9.223,-6.987,-18.580,20.049,-2.582,4.845,24.315,-20.678,-17.620,21.925,3.617,-27.381,21.726,20.883,-4.034,13.125
-17.463,-3.553,-28.660,14.176,-2.451,9.059,17.198,-32.073,-27.198,28.784,-4.445,-23.812,20.506,4.853,-15.915,22.741
-19.376,-7.105,-32.154,13.766,-3.823,13.323,14.134,-36.863,-30.855,35.674,-10.608,-26.674,18.782,11.156,-20.057,18.354
-11.133,-13.119,-29.847,14.522,9.764,13.927,16.138,-32.999,-28.344,32.195,-13.779,-16.250,21.973,14.985,-17.490,21.390
-8.499,-12.072,-21.964,8.322,8.021,15.443,12.522,-23.981,-21.169,28.198,-15.973,-8.564,20.228,0.851,-23.102,19.199
-12.907,-15.795,-8.510,-2.598,15.681,13.702,4.156,-9.896,-8.669,14.911,-20.149,-2.445,23.321,1.739,-21.585,18.247
-10.421,-18.966,6.678,-9.972,12.553,12.104,5.049,6.155,4.803,7.439,-29.962,3.630,24.535,1.833,-23.633,18.030
-14.064,-29.334,19.818,-11.502,10.413,14.094,7.636,21.326,17.409,11.194,-28.937,4.865,20.963,3.428,-24.324,21.491
-12.843,-33.100,29.272,-11.857,16.110,8.037,10.037,32.516,27.178,12.517,-26.760,-2.894,16.063,-1.853,-29.768,8.505
-4.714,-28.239,33.022,-10.019,16.486,2.421,3.781,36.166,31.138,6.129,-28.341,5.328,10.120,-7.776,-32.474,1.876
-8.786,-24.147,30.568,-21.884,14.124,-0.614,8.591,32.861,27.369,4.476,-27.261,14.383,10.854,-11.564,-26.706,2.204
-1.184,-27.701,22.235,-22.086,18.074,1.357,3.371,23.440,19.727,5.769,-24.305,4.405,7.538,-13.401,-20.878,-3.982
3.960,-15.823,10.917,-17.159,8.284,-2.018,-8.404,11.271,8.911,4.460,-20.012,4.583,-2.029,-9.552,-15.093,-10.114
2.527,-9.728,-0.235,-16.718,7.063,-9.748,-9.223,-1.921,-1.995,-4.772,-17.189,3.978,-7.338,-14.556,-20.677,-9.733
1.943,-13.614,-8.873,-16.651,2.103,-8.060,-17.023,-12.307,-11.502,-8.007,-14.766,-2.130,-5.626,-19.355,-14.093,-9.312
2.667,-3.614,-13.713,-12.965,1.654,-9.380,-20.408,-16.279,-15.262,-10.355,-12.775,-2.861,-17.887,-4.204,-13.735,-10.003
0.786,-3.724,-11.074,-7.058,1.426,-10.454,-28.944,-13.128,-12.269,-11.950,-10.199,5.967,-23.582,-10.969,-6.541,-8.040
9.906,3.924,-2.444,-14.105,-3.028,-16.497,-20.834,-3.930,-4.237,-9.029,-8.567,1.761,-17.204,-8.156,3.873,-12.390
12.112,6.479,9.817,-10.182,0.839,-11.781,-18.596,9.487,7.359,-15.199,-3.875,-11.028,-24.490,-20.429,2.466,-20.083
12.503,5.588,22.374,3.906,-8.470,-15.932,-18.057,24.161,20.014,-9.249,-0.726,-8.247,-26.961,-11.077,13.092,-12.708
0.457,8.754,34.683,6.323,-2.777,-13.818,-22.691,36.292,30.928,-10.485,2.507,-6.140,-17.746,-12.386,14.487,-13.355
1.011,8.689,40.753,11.416,-8.624,-17.836,-15.973,43.122,36.929,1.503,4.527,-7.728,-14.879,0.489,14.139,-2.652
2.477,9.238,40.967,13.219,-14.516,-19.975,-7.355,43.341,36.883,1.705,6.245,-19.184,-12.444,11.443,17.489,0.535
-4.006,11.846,34.549,21.315,-10.488,-18.538,-3.460,36.321,30.665,-0.726,4.992,-14.250,-9.346,10.878,17.401,-2.387
-6.998,9.754,22.538,13.281,-11.836,-20.463,6.922,23.868,20.139,12.141,6.166,-20.946,-6.083,15.741,6.353,5.578
-10.747,14.166,8.418,22.054,-10.391,-8.540,10.097,8.489,6.402,12.557,5.677,-20.182,3.163,19.603,7.277,16.344
-9.036,6.282,-5.133,28.140,-10.990,-8.492,16.003,-7.894,-6.668,12.809,4.855,-22.723,15.810,16.892,-3.283,16.232
-15.655,6.859,-15.696,27.505,-5.722,-7.954,17.051,-18.941,-16.420,10.366,1.935,-14.045,22.059,22.786,-6.124,21.647
-18.463,1.304,-20.629,24.190,-8.263,-10.709,31.483,-24.465,-20.767,18.992,-1.270,-20.040,22.908,15.748,-5.392,25.733
-20.778,0.110,-19.751,28.210,-4.539,-8.285,19.357,-22.938,-18.783,17.263,-2.845,-22.094,20.301,20.078,-7.833,24.185
-13.270,-12.137,-12.431,17.847,-5.639,1.016,23.799,-15.217,-12.408,21.807,-4.747,-16.505,20.383,20.597,-8.806,22.573
-13.417,-7.645,-1.719,18.997,-1.090,-0.679,32.441,-2.999,-2.048,20.977,-1.198,-4.150,24.854,20.041,-14.253,19.189
-15.856,-10.397,10.744,18.908,6.119,3.005,28.276,10.581,9.563,18.136,-0.527,-7.951,23.441,19.096,-20.398,25.671
-9.174,-10.865,19.129,7.355,10.038,6.554,33.680,20.225,18.663,20.953,-2.208,3.240,19.562,19.033,-17.469,12.410
-11.006,-12.459,23.314,7.856,10.198,8.986,29.349,24.736,22.294,11.122,-5.787,5.210,18.873,15.624,-20.939,12.009
-13.894,-17.694,21.674,-1.135,16.881,1.821,21.979,22.207,20.413,-3.520,-11.089,7.137,21.448,11.487,-18.828,10.538
-2.942,-19.575,13.062,-5.419,24.250,0.199,17.059,12.408,11.780,-4.184,-18.376,11.940,17.985,9.251,-18.712,10.098
2.317,-18.231,0.966,-7.500,23.384,-2.882,20.954,-1.783,-0.934,-5.329,-14.257,15.164,12.986,11.478,-20.344,12.463
8.557,-13.895,-14.315,-19.694,25.803,-1.157,18.196,-17.360,-14.564,-10.654,-12.157,10.423,8.316,9.648,-18.206,5.198
10.970,-17.676,-26.423,-9.622,25.206,-3.871,10.717,-32.459,-27.790,-21.972,-8.083,10.673,-0.423,5.351,-18.356,-0.697
16.260,-15.756,-34.887,-12.188,20.346,-1.480,-0.014,-42.268,-35.904,-19.370,-9.918,10.249,-11.588,3.320,-20.178,-4.063
18.084,-16.477,-38.132,-9.374,17.022,-6.400,0.187,-44.974,-38.212,-19.775,-7.630,6.736,-7.770,2.954,-11.683,-8.727
20.435,-13.306,-34.496,-5.220,17.656,-12.240,7.221,-40.529,-35.111,-26.218,-6.134,3.960,-16.342,-2.303,0.265,-10.192
22.229,-6.608,-24.833,-6.808,10.914,-5.824,-9.417,-29.623,-25.838,-20.320,-9.415,4.618,-14.659,1.113,12.602,-10.820
25.045,-7.060,23.206,-6.793,3.376,-8.238,-6.269,24.883,20.355,-27.966,-4.596,0.967,-10.724,-3.833,8.778,-11.227
34.509,-1.066,35.844,0.029,0.406,-18.084,-7.647,38.648,32.488,-24.331,-1.306,0.352,-17.381,-3.958,8.303,-7.557
23.860,5.045,46.203,-1.858,-8.131,-15.239,-13.653,49.826,42.364,-24.541,-1.906,-7.937,-19.746,-5.515,8.667,-4.499
21.226,5.042,15.212,2.777,-5.521,-13.852,-11.661,15.869,14.145,-20.611,7.023,-10.960,-17.741,-5.439,16.533,-11.577
15.049,3.281,14.013,11.387,-10.230,-6.245,-14.751,15.535,11.838,-16.770,12.087,-10.490,-19.469,-2.833,9.943,-15.819
12.296,13.382,7.105,17.631,-16.982,-1.791,-6.181,7.207,4.500,-11.346,7.752,-11.870,-20.183,6.578,17.044,-15.304
6.647,14.695,-4.569,23.674,-13.717,-7.715,-1.036,-4.770,-5.173,-14.103,17.281,-19.740,-17.729,6.788,20.745,-0.986
6.312,10.200,-16.274,20.343,-16.970,-8.455,2.975,-17.975,-15.676,-8.597,19.262,-16.641,-14.975,8.458,18.557,-0.319
-5.552,11.460,-25.583,27.673,-17.791,-6.136,8.581,-30.007,-26.403,-2.210,16.682,-16.259,-14.822,11.974,17.063,2.946
-7.330,6.308,-30.706,23.551,-9.340,-0.830,11.270,-35.776,-30.647,9.150,13.720,-18.861,-6.151,17.414,14.238,7.618
-23.819,16.020,-29.253,15.398,-6.404,4.436,11.106,-35.642,-29.495,4.881,14.444,-18.882,-1.964,19.293,10.942,21.014
-19.251,11.286,-22.571,29.859,-2.375,1.302,13.217,-27.061,-23.184,13.739,14.660,-13.911,5.506,26.066,10.060,22.295
-19.262,-5.717,-10.624,25.003,0.386,5.498,13.532,-12.815,-11.330,14.539,4.610,-9.882,9.011,27.310,4.113,21.897
-21.214,-3.542,4.184,20.872,-3.484,3.705,20.536,4.184,2.982,19.951,3.799,-6.318,9.981,23.761,6.042,19.768
-14.227,-8.475,18.476,24.851,2.510,12.938,24.141,19.540,17.182,17.294,0.914,-8.477,5.615,24.043,0.537,26.116
-19.851,-17.638,28.940,26.421,0.564,17.297,23.183,31.234,27.037,12.374,-9.070,-5.033,8.023,20.133,-2.798,14.073
-17.056,-15.016,34.066,13.424,2.433,13.247,21.474,36.312,32.236,17.123,-7.212,-3.789,8.276,15.846,-0.312,14.907
-19.467,-10.311,31.789,16.536,4.779,16.782,16.004,34.138,30.858,19.518,-6.511,-5.343,11.678,14.395,-5.195,18.425
-10.103,-10.488,24.508,5.326,10.036,17.259,18.434,25.796,23.852,14.915,-11.517,4.888,9.088,8.886,-5.101,12.208
-7.473,-17.488,13.235,10.505,12.864,14.436,19.517,12.714,12.229,11.543,-12.517,8.559,14.267,15.401,-20.169,13.257
-3.605,-24.692,1.020,-2.713,20.445,9.760,16.325,0.088,1.379,3.756,-16.958,7.662,10.547,15.687,-13.743,7.195
-10.878,-19.064,-8.870,-6.505,18.974,11.838,13.200,-9.297,-8.233,-3.208,-20.111,5.730,1.466,10.040,-16.248,1.472
-9.747,-17.799,-14.132,-5.822,17.275,6.384,7.479,-15.364,-13.624,-2.959,-17.594,0.841,-3.426,9.186,-19.095,-0.596
2.039,-19.828,-12.222,-12.631,11.492,-0.672,-0.021,-13.396,-12.061,-4.748,-18.664,2.032,-3.949,0.783,-17.606,-4.870
19.531,-28.753,-5.289,-15.364,13.262,-8.095,-4.721,-5.781,-4.302,-2.573,-14.717,5.611,-10.290,-0.803,-17.513,-12.359
14.132,-21.007,6.141,-15.735,4.324,-13.457,-0.304,6.063,5.882,-0.203,-10.970,5.177,-16.706,-8.804,-11.552,-8.852
10.866,-10.804,19.859,-12.823,5.350,-14.532,-7.680,20.957,18.935,-15.737,-14.778,1.408,-21.768,0.839,-7.211,-9.894
18.181,-12.234,31.818,-15.819,10.683,-15.668,-5.943,33.637,29.859,-18.091,-4.620,-1.101,-24.333,-4.876,-7.140,-13.258
18.405,-3.650,40.062,-6.079,7.818,-18.580,-11.121,42.033,37.021,-11.400,-8.305,6.598,-26.852,0.133,-0.894,-16.168
19.587,-4.239,40.633,1.958,2.947,-20.302,-7.365,43.821,38.638,-17.825,-3.870,4.756,-28.810,-2.259,4.007,-1.950
19.807,-0.687,35.088,7.190,-1.220,-15.044,-5.550,37.641,32.896,-18.487,-1.072,1.336,-32.965,-6.384,10.607,-10.551
16.170,6.277,24.027,12.517,0.395,-18.180,-2.261,25.660,23.000,-20.603,-0.049,0.215,-31.977,-10.304,9.248,-9.845
16.616,7.543,10.468,17.993,-5.412,-20.823,-4.844,10.569,9.645,-10.576,5.663,-11.273,-28.634,-1.405,5.617,1.599
7.572,12.518,-3.834,25.238,-10.678,-18.100,-8.550,-5.210,-4.093,1.332,6.951,-16.701,-23.912,-3.657,16.431,-8.970
7.761,11.146,-15.144,24.734,-10.102,-16.708,-1.172,-18.218,-15.805,-3.705,6.655,-24.524,-18.326,-4.756,16.104,-2.990
3.355,10.123,-20.353,34.363,-8.814,-19.266,-0.126,-24.218,-20.619,3.496,10.435,-20.165,-17.815,6.288,16.166,-0.047
-0.671,5.176,-20.084,33.667,-18.515,-13.603,7.360,-23.883,-19.790,10.169,11.164,-25.516,-9.107,10.718,9.191,9.029
-6.606,0.894,-13.526,41.060,-16.031,-13.017,21.825,-16.816,-14.731,9.998,13.710,-25.057,-9.293,15.304,9.986,17.180
-11.222,0.125,-3.855,40.299,-17.194,-5.737,17.515,-5.260,-4.277,8.139,8.806,-29.865,-2.376,11.752,6.981,13.072
-11.371,-4.184,7.811,43.944,-13.003,-8.323,21.802,8.220,6.046,7.800,4.382,-26.360,7.058,14.193,6.130,14.762
-22.948,-7.324,17.629,42.660,-8.071,7.005,29.125,18.915,16.014,5.731,6.413,-26.053,5.222,25.053,8.150,18.288
-17.933,-9.421,22.055,36.647,-6.513,5.513,21.794,23.975,20.557,9.258,5.346,-24.627,8.971,24.844,-1.814,24.030
-19.839,-10.256,21.201,33.571,0.201,-5.069,20.566,22.810,20.285,13.885,5.413,-17.504,8.767,25.367,-3.706,19.904
-15.172,-9.370,13.934,38.137,2.140,3.487,21.463,14.971,14.086,20.826,2.634,-18.053,13.984,34.002,-4.698,21.028
-15.736,-9.327,2.276,30.181,8.392,3.982,20.567,1.476,1.776,17.526,1.245,-3.948,9.409,32.946,-4.342,22.825
-13.702,-14.825,-12.080,25.537,7.021,10.823,14.738,-14.725,-11.167,15.310,-6.586,-7.868,12.714,25.769,-14.470,19.581
-10.134,-27.675,-26.508,19.424,11.990,11.101,15.843,-29.832,-24.721,17.431,-7.195,-6.156,7.315,24.164,-20.493,22.501
-8.050,-25.220,-35.836,26.350,17.109,9.332,17.841,-40.625,-34.727,1.209,-11.915,-2.063,3.114,16.657,-16.719,17.044
-6.848,-34.413,-39.177,24.381,14.406,2.695,10.351,-44.565,-37.718,1.042,-13.982,6.754,8.974,13.831,-15.065,12.774
1.129,-37.407,-37.091,17.295,14.703,5.483,16.725,-41.701,-35.259,-2.464,-15.644,8.084,7.291,2.708,-21.416,6.185
-0.326,-33.817,-28.557,7.015,15.827,2.117,12.184,-32.114,-26.928,-5.376,-19.702,9.761,1.408,4.041,-27.137,3.098
4.997,-37.990,-16.336,6.171,18.279,3.732,1.111,-18.162,-15.718,-6.973,-16.734,12.800,1.641,-4.055,-18.988,-1.027
9.182,-30.150,-2.336,3.067,23.042,1.756,-1.566,-4.155,-3.075,-9.026,-18.487,16.644,-2.236,3.790,-23.483,-11.985
12.749,-18.283,8.812,0.934,20.744,-3.862,-14.864,8.285,8.125,-8.087,-14.175,17.290,-3.689,-4.923,-22.288,-14.289
16.224,-13.578,14.718,0.555,22.126,-7.599,-14.118,15.413,14.342,-15.425,-13.821,16.917,-9.076,-11.908,-14.817,-17.051
14.835,-7.544,14.141,-5.444,23.968,-13.680,-21.988,14.573,13.927,-13.041,-16.181,17.996,-14.497,-15.231,-9.550,-29.092
20.793,-7.059,8.099,0.432,20.098,-11.271,-25.567,8.032,7.986,-9.464,-16.947,20.045,-13.491,-17.038,-2.893,-22.248
23.719,-3.641,-1.625,-3.913,13.937,-15.060,-19.063,-3.087,-2.084,-12.172,-16.656,11.012,-13.816,-13.796,-3.536,-21.505
19.170,-1.391,-14.036,12.537,14.316,-21.479,-27.415,-16.251,-13.387,-9.117,-10.144,7.584,-16.421,-11.857,1.038,-15.389
16.067,2.625,-25.300,14.379,6.896,-22.472,-20.400,-28.649,-23.973,-11.769,-8.242,-2.058,-18.641,-18.357,4.328,-15.328
16.410,3.419,-31.656,16.434,0.868,-14.450,-17.417,-35.134,-30.010,-16.487,-1.438,-6.664,-18.275,-14.999,3.927,-11.237
4.512,8.287,-31.798,18.159,5.895,-11.489,-18.585,-35.724,-29.943,-8.643,1.795,-3.591,-6.784,-11.091,14.045,-7.674
-5.114,-2.679,-26.168,26.253,-0.759,-15.026,-12.281,-29.812,-23.932,-7.697,0.599,-10.131,-9.248,-3.711,14.004,-5.082
-7.725,-1.543,-15.058,23.356,1.395,-16.753,-7.746,-17.276,-13.537,4.497,11.844,-20.331,-8.211,0.629,11.292,1.211
-16.062,1.512,35.318,35.068,1.334,-19.046,-6.508,39.186,33.970,-2.190,10.722,-20.396,-7.342,5.599,16.376,-1.592
-4.548,-0.220,50.620,35.194,0.323,-15.978,-9.031,54.198,48.387,5.699,12.398,-23.509,-10.701,9.677,15.486,2.694
-13.241,-3.229,62.194,35.623,-6.633,-15.369,0.118,67.080,59.742,8.784,11.025,-30.083,-2.282,15.900,13.966,7.043
-22.016,1.043,32.449,36.827,-0.920,-6.205,9.906,34.996,31.405,12.285,6.483,-23.256,4.574,14.189,9.922,6.963
-19.811,5.458,32.467,41.761,1.272,-2.484,14.469,33.647,30.942,12.030,8.512,-23.058,2.989,14.390,1.770,11.878
-16.793,-8.410,25.109,31.886,1.030,3.227,17.662,27.423,24.598,14.680,-1.975,-27.366,-0.066,16.903,5.697,19.177
-18.838,-16.260,14.769,32.371,-0.564,5.833,17.731,16.193,14.364,27.139,-3.791,-20.888,9.469,16.420,0.212,16.330
-19.969,-7.941,2.233,29.819,-2.820,5.668,21.593,3.270,2.619,21.748,-4.166,-22.861,10.156,8.073,-3.355,20.454
-20.556,-10.194,-8.102,28.441,2.070,8.258,28.300,-8.878,-7.208,22.958,-6.426,-23.169,12.858,16.096,-5.715,16.755
-22.669,-15.330,-13.681,25.818,4.271,4.992,24.195,-15.689,-12.900,28.585,-12.747,-13.232,15.644,23.039,-12.914,22.205
-13.547,-25.573,-14.685,17.452,13.845,8.441,21.434,-15.003,-13.203,27.551,-20.381,2.518,11.982,21.410,-17.904,18.160
-10.010,-33.088,-7.519,10.008,10.848,9.441,24.566,-7.851,-6.986,20.951,-15.860,6.826,11.268,21.405,-23.653,10.348
-7.585,-30.736,3.616,16.874,10.368,6.465,25.512,4.761,3.277,24.031,-19.444,1.659,13.646,11.509,-26.168,5.225
-6.940,-29.432,16.651,11.169,11.559,-1.941,12.501,19.065,16.631,16.699,-20.213,3.020,8.709,2.665,-18.199,3.143
-10.989,-28.303,28.630,14.683,8.415,-3.505,12.855,31.694,28.782,15.459,-23.809,7.207,0.764,7.534,-17.614,-0.777
1.686,-28.470,37.550,5.756,11.092,1.396,7.626,41.976,37.699,3.508,-21.913,19.485,9.032,1.647,-17.562,-2.332
6.213,-29.189,39.866,0.420,8.371,2.049,-6.476,45.016,39.361,4.040,-20.074,17.913,6.815,-0.178,-19.931,-5.477
16.171,-24.294,35.804,-2.177,7.238,3.886,-12.419,40.508,35.732,-3.121,-22.591,17.776,-2.913,-3.665,-21.446,-11.136
10.666,-20.795,25.743,-8.406,6.125,-3.888,-11.245,29.293,25.619,-4.026,-17.422,21.659,-0.120,-3.202,-19.661,-13.246
9.820,-21.529,11.865,-7.343,-0.330,-12.076,-18.330,14.110,11.958,-3.562,-20.135,10.685,-8.851,-3.930,-16.012,-21.229
11.703,-16.995,-2.009,-7.024,5.703,-9.512,-18.775,-1.806,-2.088,-11.889,-17.294,8.220,-14.215,-8.770,-11.268,-19.678
15.371,4.149,-14.356,-2.649,9.345,-11.662,-22.900,-15.069,-13.284,-17.539,-17.079,11.518,-5.025,-5.753,-8.416,-20.921
20.495,-2.125,-21.080,8.720,6.784,-16.095,-19.200,-22.548,-20.086,-9.287,-14.520,5.763,-10.370,-6.616,-1.871,-19.359
15.514,-1.112,-22.291,10.142,-1.995,-17.124,-14.608,-23.848,-20.757,-15.845,-8.026,8.919,-15.394,-14.753,6.901,-15.311
14.838,8.341,-16.771,10.773,-3.005,-19.887,-16.700,-18.205,-16.011,-9.861,1.196,3.786,-17.967,-14.412,6.590,-15.303
14.693,10.659,-6.926,17.495,-2.317,-20.487,-18.691,-7.670,-6.464,-2.768,-1.457,-4.425,-19.487,-5.363,11.329,-11.946
11.636,6.110,4.362,21.798,-1.153,-19.459,-22.292,4.852,5.218,0.180,0.608,-8.336,-11.537,-2.005,17.639,-9.097
5.339,10.092,15.137,22.997,-5.371,-20.594,-13.003,16.137,15.083,0.392,5.600,-7.974,-15.687,0.826,18.564,1.250
0.563,10.312,20.943,26.693,-6.543,-18.973,-2.305,23.461,20.688,-0.724,6.946,-11.902,-10.921,4.669,15.470,7.808
-10.499,13.765,21.664,29.678,-2.375,-18.543,-3.416,23.599,20.500,6.701,9.161,-15.525,0.802,5.329,19.453,2.923
-8.664,13.812,15.905,34.385,-2.368,-13.347,9.023,17.147,14.570,11.006,9.537,-17.684,-1.871,3.592,21.570,7.671
-14.444,10.306,4.640,37.430,-2.450,-9.364,9.655,4.595,4.600,12.915,5.911,-21.804,5.220,16.690,18.342,8.968
-14.065,7.731,-9.089,38.715,2.291,-6.890,15.681,-10.905,-8.969,17.833,3.170,-23.079,3.369,14.482,14.425,21.210
-18.615,0.836,-23.435,30.514,9.818,-2.432,18.621,-26.696,-22.986,20.631,6.545,-24.330,8.304,15.169,9.852,25.453
-22.303,2.432,-34.722,32.966,1.168,-1.073,15.226,-38.000,-33.153,29.285,-0.611,-30.035,7.503,19.204,12.271,20.409
-23.593,-4.631,-39.640,33.302,3.568,1.820,21.565,-44.213,-38.534,28.615,0.074,-24.005,10.584,24.321,-4.787,11.443
