Fp1,Fp2,F7,F3,Fz,F4,F8,T3,C3,Cz,C4,T4,P3,Pz,P4,O1
27.151,23.817,20.032,21.170,26.775,27.797,21.019,21.277,19.601,19.090,26.564,25.841,28.389,28.411,25.401,25.684
44.455,38.298,33.579,34.674,44.719,46.229,35.255,34.841,32.344,31.736,43.499,42.317,47.200,47.177,41.649,42.737
32.725,28.190,24.307,25.316,32.325,33.419,25.679,25.223,23.538,22.829,31.443,30.778,33.999,33.996,30.062,31.236
42.865,36.561,31.890,32.903,42.003,44.060,33.794,33.069,31.059,30.332,41.162,40.248,44.825,44.934,40.287,40.737
46.824,40.327,34.931,36.148,46.452,48.373,37.183,36.240,33.878,32.920,45.145,44.112,49.124,49.163,44.154,44.824
45.687,39.099,33.818,35.131,44.751,46.431,36.272,35.143,32.721,31.847,43.607,42.951,47.576,47.771,42.194,43.309
39.518,33.564,29.436,30.592,39.085,40.488,31.183,30.675,28.252,27.597,37.967,37.632,41.121,41.516,36.593,37.612
31.075,26.445,22.778,24.090,30.654,31.565,24.573,23.878,22.278,21.337,29.649,29.480,32.360,32.547,28.777,29.338
22.653,19.533,16.434,17.965,22.034,23.160,17.878,17.450,16.650,15.887,21.544,21.638,23.758,23.747,21.171,21.272
16.579,14.528,12.113,13.284,15.836,16.587,12.783,12.855,12.242,11.320,15.745,15.783,17.313,17.295,15.500,15.567
14.017,12.281,9.930,11.177,13.605,13.571,10.703,10.771,10.015,9.726,13.420,13.177,14.364,14.566,12.801,13.089
14.963,12.795,11.033,11.741,14.602,14.834,11.669,11.309,10.492,10.343,14.518,14.108,15.355,15.318,13.425,14.203
18.798,15.890,13.957,14.680,18.294,18.695,14.462,14.193,13.293,12.703,17.791,17.566,19.254,19.491,16.923,17.677
23.369,19.812,17.277,18.387,22.238,23.216,18.349,17.790,16.557,16.479,22.362,21.942,24.580,24.301,21.243,21.758
26.636,22.731,19.451,20.904,25.825,27.199,20.883,20.524,19.104,18.957,25.663,24.973,27.819,27.751,24.617,24.992
26.643,22.749,19.561,20.934,26.062,27.179,21.175,20.387,19.149,18.830,25.445,24.922,27.726,27.406,24.175,24.683
21.878,18.478,16.121,17.097,21.173,22.172,17.039,16.575,15.808,15.255,20.963,20.391,22.682,22.383,19.874,20.122
11.892,10.193,8.910,9.557,11.394,11.811,9.572,9.204,8.483,8.298,11.527,11.134,12.397,12.014,10.560,11.046
-2.046,-1.478,-2.011,-1.550,-3.139,-2.581,-1.747,-1.860,-1.531,-2.180,-2.157,-1.967,-2.663,-2.800,-2.934,-2.458
-18.485,-15.611,-14.152,-14.261,-19.421,-19.758,-14.938,-14.510,-13.540,-14.049,-18.069,-17.469,-19.997,-20.481,-18.120,-18.172
-34.722,-29.431,-26.399,-27.064,-35.998,-36.701,-28.101,-27.138,-25.174,-25.754,-33.743,-32.812,-36.616,-37.357,-33.238,-34.148
-47.988,-40.477,-36.099,-37.325,-49.027,-50.860,-38.469,-37.435,-34.422,-35.431,-46.879,-45.402,-50.681,-51.141,-45.568,-46.789
-56.006,-47.377,-42.550,-43.397,-57.459,-58.766,-45.074,-43.353,-40.433,-41.140,-54.559,-53.303,-58.819,-59.845,-52.846,-54.567
-58.020,-48.502,-43.564,-44.986,-59.236,-60.344,-46.353,-44.716,-41.738,-42.485,-55.823,-54.776,-60.985,-61.382,-53.901,-55.909
-53.414,-44.614,-40.424,-41.293,-54.500,-55.515,-42.659,-41.053,-37.935,-39.352,-51.082,-50.223,-56.063,-56.630,-49.803,-51.395
-43.535,-36.508,-33.075,-33.830,-44.556,-45.964,-34.774,-33.898,-31.125,-32.178,-41.753,-41.128,-45.510,-46.322,-41.176,-41.898
-30.731,-25.867,-23.477,-23.899,-31.864,-32.950,-24.633,-23.828,-21.887,-22.969,-29.734,-28.754,-32.740,-33.173,-28.983,-29.659
-17.584,-14.267,-13.394,-13.828,-18.539,-19.242,-14.407,-13.620,-12.383,-13.625,-17.514,-16.399,-18.987,-18.948,-16.756,-17.479
-6.837,-4.964,-5.194,-5.418,-7.072,-7.792,-5.757,-5.464,-4.846,-5.704,-6.887,-6.109,-7.296,-7.651,-6.458,-6.824
0.232,0.813,-0.158,0.159,0.329,-0.144,-0.006,0.161,0.417,-0.586,0.477,0.870,0.209,0.059,0.634,0.355
3.081,3.349,2.429,2.492,3.101,2.867,2.469,2.553,2.687,1.909,3.305,3.623,3.488,3.117,3.113,3.561
2.575,2.767,1.467,1.853,2.145,2.161,1.955,2.400,2.229,1.543,2.605,3.288,2.919,2.339,2.231,2.476
-0.386,0.320,-0.467,-0.151,-0.032,-0.747,-0.529,0.170,0.631,-0.560,-0.164,1.010,-0.150,-0.439,-0.170,-0.133
-3.064,-1.961,-2.825,-2.320,-2.752,-3.805,-2.895,-2.175,-1.694,-2.447,-3.095,-2.409,-3.129,-3.073,-2.784,-2.907
-3.762,-2.528,-3.004,-3.156,-3.612,-4.240,-3.005,-2.488,-2.243,-3.204,-3.297,-3.046,-3.850,-3.703,-3.200,-3.583
-0.686,-0.171,-0.639,-0.709,-1.013,-1.240,-0.648,-0.114,0.013,-0.882,-0.477,-0.177,-0.287,-0.324,-0.533,-1.146
6.518,6.032,4.856,4.856,6.273,6.555,5.183,5.562,5.003,3.850,6.667,6.978,7.117,7.172,6.309,5.989
17.163,15.625,12.765,13.365,17.401,17.676,14.148,14.358,13.004,12.100,17.275,17.433,18.557,18.726,16.593,16.900
30.135,26.898,22.439,23.349,30.747,31.584,24.746,24.060,22.295,21.615,30.264,29.470,32.310,32.604,28.626,29.204
43.217,37.411,32.204,33.535,43.368,44.865,34.613,33.928,31.497,30.668,42.437,41.410,45.431,45.938,40.806,41.149
53.254,45.661,39.995,41.256,52.879,54.975,42.542,41.309,38.471,37.594,51.664,50.592,55.325,56.311,49.677,50.472
57.794,49.741,43.295,44.800,57.244,59.882,46.022,44.496,41.825,40.772,56.322,55.079,60.521,61.116,53.958,54.962
56.061,48.160,42.177,43.416,55.834,57.572,44.734,43.468,40.538,39.934,54.660,53.501,58.566,59.537,52.215,53.789
75.169,64.418,56.564,58.307,74.794,77.546,60.052,58.001,54.520,53.732,73.285,71.547,78.759,79.807,69.683,71.899
62.013,53.033,46.810,48.012,61.908,63.848,50.035,48.148,45.157,43.975,60.230,59.199,64.763,65.931,57.882,59.537
18.589,16.173,14.069,14.439,18.906,18.984,15.048,14.403,13.694,13.122,18.368,18.649,19.433,20.051,17.869,18.277
2.361,2.225,1.223,1.631,1.822,2.374,2.389,2.061,2.094,1.420,2.725,2.939,1.919,2.483,2.072,2.356
-11.594,-9.635,-9.260,-9.195,-12.224,-12.522,-9.145,-8.835,-8.161,-8.949,-11.193,-10.417,-12.784,-12.768,-11.239,-11.266
-21.728,-18.149,-16.415,-16.918,-22.343,-22.773,-17.299,-16.321,-15.080,-15.869,-20.816,-19.687,-22.985,-23.314,-19.982,-20.865
-26.947,-22.021,-20.288,-20.652,-26.694,-27.790,-21.397,-19.979,-18.792,-19.202,-25.362,-24.385,-28.320,-28.197,-24.673,-25.711
-26.891,-22.106,-20.083,-20.841,-27.508,-27.905,-21.416,-20.544,-18.792,-19.398,-25.128,-24.150,-28.155,-28.529,-24.872,-25.721
-23.321,-19.325,-17.412,-18.205,-24.044,-24.201,-18.647,-17.579,-16.625,-16.814,-21.648,-21.410,-24.544,-25.016,-21.685,-22.361
-18.545,-15.511,-14.186,-14.213,-19.369,-19.504,-14.952,-13.847,-13.150,-13.400,-17.206,-17.217,-19.251,-19.955,-17.550,-17.598
-14.970,-12.120,-11.347,-11.326,-15.615,-15.790,-11.251,-10.921,-10.316,-10.732,-13.689,-13.385,-15.686,-15.903,-13.891,-14.330
-13.929,-11.527,-10.485,-10.337,-14.754,-14.898,-10.282,-10.674,-9.632,-9.841,-12.626,-12.452,-14.433,-14.797,-13.046,-13.210
-16.954,-13.653,-12.325,-12.944,-17.082,-17.314,-12.829,-12.775,-12.050,-11.931,-15.353,-15.594,-17.239,-17.343,-15.313,-15.550
-23.063,-19.094,-17.245,-17.745,-23.105,-23.585,-17.988,-17.484,-16.230,-16.135,-21.364,-21.175,-23.802,-24.007,-21.124,-21.298
-31.368,-25.988,-23.861,-24.024,-31.855,-32.399,-24.587,-23.530,-22.222,-21.900,-29.366,-28.889,-32.806,-32.822,-28.763,-29.312
-39.664,-32.940,-29.809,-30.420,-39.900,-40.590,-31.347,-29.920,-27.790,-28.263,-37.191,-36.775,-41.061,-41.359,-36.355,-37.383
-45.564,-37.978,-34.578,-35.530,-46.208,-46.972,-36.097,-34.978,-32.373,-32.891,-43.208,-42.424,-47.269,-47.725,-42.235,-43.600
-46.776,-39.365,-35.326,-36.662,-47.799,-48.394,-37.397,-35.975,-33.676,-33.975,-45.215,-44.223,-49.084,-49.755,-43.958,-45.011
-42.820,-35.759,-32.594,-33.399,-43.543,-44.418,-34.153,-32.838,-30.657,-30.602,-40.788,-40.347,-44.761,-45.040,-39.767,-40.629
-32.664,-26.998,-24.948,-25.731,-33.224,-34.103,-25.902,-25.174,-23.303,-23.666,-31.023,-30.693,-34.740,-34.535,-30.427,-30.802
-17.254,-14.340,-13.734,-14.260,-18.407,-18.790,-13.759,-13.637,-12.494,-13.283,-16.568,-16.305,-18.822,-18.271,-16.211,-16.490
0.225,0.796,-0.245,-0.249,-0.825,-0.385,0.183,-0.006,0.351,-0.170,0.367,0.383,-0.361,0.562,-0.054,-0.031
17.753,15.743,13.327,13.573,16.845,17.954,14.222,13.518,13.138,12.502,17.720,17.057,18.130,19.353,16.361,16.885
32.080,28.381,24.695,25.104,31.946,33.442,26.198,25.173,23.873,23.262,32.064,31.477,33.660,34.769,30.488,31.548
42.074,36.867,32.103,32.803,42.137,43.981,34.387,32.828,31.449,30.743,41.763,40.739,43.979,45.286,40.125,40.678
46.180,40.164,34.765,36.411,46.464,48.157,37.776,36.064,34.275,33.837,45.659,44.554,48.385,49.923,43.525,44.733
44.724,38.994,33.579,34.873,44.674,47.269,36.357,34.733,32.962,32.502,44.258,43.320,46.798,48.236,41.869,43.207
38.866,33.708,29.336,29.921,38.843,40.484,31.461,30.410,28.392,27.918,37.998,37.356,40.448,41.847,36.485,37.543
30.380,26.826,22.812,23.593,30.294,31.761,24.579,24.055,22.310,21.766,30.154,29.181,31.562,32.936,28.545,29.820
22.100,19.356,16.495,17.263,21.951,23.039,17.831,17.494,16.231,15.881,22.044,21.180,23.329,24.032,20.594,21.503
15.783,14.259,11.919,12.478,15.931,16.786,13.053,12.469,11.847,11.426,16.180,15.452,17.233,17.720,14.915,15.474
12.821,12.065,9.832,10.399,13.230,14.276,10.775,10.644,9.975,9.270,13.377,13.462,14.134,14.645,12.514,13.398
13.860,12.805,10.892,11.235,14.525,15.196,11.698,11.266,10.705,10.254,14.622,14.664,15.153,15.727,13.143,14.488
17.355,15.962,13.590,14.219,18.240,19.274,14.984,14.422,13.456,13.035,17.765,18.094,19.227,19.679,16.726,17.839
22.394,19.885,17.177,18.025,22.766,24.175,18.529,18.056,16.877,16.409,22.250,22.497,24.510,24.851,21.220,21.921
25.581,22.561,19.432,20.334,25.802,27.996,21.287,20.446,19.477,18.816,25.472,25.448,27.639,28.578,24.596,25.233
25.695,22.332,19.716,20.261,25.705,27.960,21.472,20.725,19.386,18.712,25.368,25.748,27.512,28.222,24.615,25.394
20.555,18.181,16.136,16.444,21.402,22.400,17.673,17.031,15.898,15.134,20.889,20.943,22.603,23.009,19.686,20.783
10.912,9.960,8.557,8.581,11.232,11.806,9.598,9.314,8.733,7.981,11.364,11.496,12.293,12.324,10.316,11.289
-3.034,-1.990,-2.345,-2.433,-2.436,-2.725,-1.956,-1.957,-1.591,-2.488,-2.594,-2.090,-3.072,-2.851,-3.139,-2.228
-19.550,-15.896,-14.464,-15.131,-18.808,-19.385,-14.883,-14.792,-13.267,-14.447,-18.542,-17.178,-20.150,-20.163,-18.328,-17.941
-35.764,-29.724,-26.807,-27.782,-35.317,-36.454,-27.669,-27.571,-25.164,-25.773,-34.100,-32.364,-37.098,-37.143,-32.967,-33.251
-48.711,-40.772,-36.579,-37.880,-48.902,-49.985,-38.453,-37.592,-34.539,-35.355,-46.829,-45.133,-50.653,-51.186,-44.918,-46.054
-29.676,-24.823,-22.324,-22.836,-29.610,-30.382,-23.160,-22.602,-20.844,-21.482,-28.290,-26.996,-30.678,-31.216,-26.826,-28.296
-31.360,-25.886,-23.465,-24.147,-31.076,-32.041,-24.344,-24.114,-22.020,-22.446,-29.996,-28.689,-32.371,-32.690,-28.652,-29.605
-53.117,-44.759,-40.356,-41.597,-53.524,-55.627,-41.965,-41.244,-38.190,-38.690,-51.692,-50.159,-55.915,-56.347,-49.420,-50.690
-43.710,-36.823,-33.202,-33.751,-43.764,-45.613,-34.207,-33.598,-31.079,-31.733,-41.751,-40.903,-45.553,-46.312,-40.805,-41.611
-31.199,-25.623,-23.613,-24.285,-31.123,-32.179,-24.242,-23.760,-21.923,-22.354,-29.408,-29.147,-32.087,-32.943,-29.089,-29.698
-18.296,-14.900,-13.752,-14.305,-18.261,-18.381,-13.686,-13.615,-12.541,-13.176,-16.756,-16.531,-18.539,-19.011,-16.771,-17.014
-7.165,-5.708,-6.107,-5.294,-7.332,-7.605,-4.981,-5.326,-4.751,-5.287,-6.563,-6.260,-6.892,-7.584,-6.694,-6.507
0.188,0.837,-0.490,0.105,0.230,0.057,1.026,0.354,0.740,-0.181,0.447,1.016,0.572,0.362,0.164,0.427
3.307,3.759,2.089,2.423,3.349,3.218,3.127,2.696,2.949,2.212,3.582,3.767,3.571,3.567,2.957,3.118
2.684,2.669,1.297,2.039,2.395,2.025,2.608,1.923,2.693,1.824,3.468,3.176,2.931,2.700,2.631,2.298
-0.189,0.264,-0.715,-0.208,-0.529,-0.245,0.383,-0.139,0.754,-0.143,0.109,0.093,0.354,0.195,-0.263,-0.220
-3.527,-2.213,-2.634,-2.978,-3.528,-3.168,-2.280,-2.297,-1.355,-2.371,-2.484,-2.419,-2.823,-3.109,-2.826,-2.724
-3.967,-2.582,-2.833,-2.911,-3.727,-3.968,-2.503,-2.812,-1.831,-2.603,-2.816,-2.852,-3.368,-4.017,-3.551,-3.532
-1.005,-0.053,-0.881,-0.823,-0.666,-0.556,0.115,-0.483,0.341,-0.495,-0.101,-0.113,-0.281,-0.653,-0.387,-0.757
6.149,6.108,4.483,4.967,6.272,7.014,5.725,5.430,5.465,4.693,6.794,7.095,7.186,7.163,6.266,6.345
17.072,15.383,12.919,13.931,17.450,18.340,14.556,13.677,13.678,12.209,17.427,17.676,18.943,18.518,16.569,16.725
29.983,26.475,22.930,23.531,30.413,31.437,25.047,23.602,22.613,21.757,30.074,29.898,32.191,32.376,28.763,29.205
42.743,36.951,32.420,33.377,43.078,45.025,34.975,33.386,31.768,30.843,42.462,41.804,45.488,45.774,40.781,41.582
52.685,45.416,39.388,40.773,52.928,55.414,42.717,41.042,38.803,37.884,51.919,50.511,55.421,56.224,49.866,50.309
57.183,49.066,43.204,44.430,57.922,59.935,46.475,44.490,42.133,40.976,56.390,55.232,60.357,61.253,53.870,55.188
55.173,47.269,41.789,43.365,56.041,58.244,45.107,43.360,40.867,40.366,54.541,53.297,59.012,59.893,52.516,53.513
47.616,40.773,35.846,37.373,47.975,50.055,38.541,37.157,35.167,34.313,46.821,46.184,50.448,51.240,45.075,45.685
34.662,29.933,26.091,27.080,35.033,36.070,27.819,27.004,25.682,24.796,34.071,33.633,36.736,37.072,32.733,33.373
18.041,16.656,13.787,14.486,18.674,19.671,15.203,14.398,13.918,13.280,18.479,18.321,19.449,20.049,17.623,18.175
1.639,2.363,1.306,1.851,2.693,2.445,1.941,1.881,2.172,1.404,2.753,2.971,2.193,2.570,2.434,1.783
-12.130,-9.487,-9.008,-9.084,-11.216,-12.387,-9.455,-9.415,-7.889,-8.669,-11.193,-10.586,-12.590,-12.482,-10.613,-11.542
-22.041,-18.026,-16.546,-16.691,-21.067,-22.607,-17.319,-16.694,-15.163,-15.784,-21.044,-20.579,-22.731,-22.891,-19.701,-20.895
-26.733,-22.022,-20.318,-20.493,-26.086,-27.636,-21.066,-20.303,-18.867,-19.530,-25.577,-25.067,-27.760,-28.019,-24.854,-25.502
-26.678,-21.986,-20.158,-20.789,-25.935,-27.485,-20.873,-20.267,-19.065,-19.296,-25.833,-24.826,-27.862,-27.751,-24.823,-25.625
-23.243,-19.509,-17.731,-18.112,-22.748,-23.575,-18.319,-17.638,-16.484,-17.131,-22.529,-21.849,-24.279,-24.127,-21.646,-22.383
-18.951,-15.329,-14.084,-14.297,-18.177,-18.895,-14.606,-14.054,-13.228,-13.828,-17.922,-17.267,-19.308,-19.643,-17.112,-18.204
-14.911,-12.031,-10.990,-11.376,-14.567,-15.164,-11.388,-11.365,-10.722,-10.672,-14.048,-13.796,-15.533,-15.615,-13.357,-14.482
-14.097,-11.263,-10.655,-10.686,-13.592,-14.110,-10.682,-10.588,-10.097,-10.007,-13.036,-13.167,-14.305,-14.815,-12.725,-13.526
-16.620,-13.599,-12.740,-13.016,-16.025,-17.371,-12.692,-12.755,-11.647,-12.381,-15.631,-15.652,-17.499,-17.489,-15.294,-15.941
-22.685,-18.916,-17.204,-17.738,-22.536,-23.338,-17.864,-17.278,-16.058,-16.190,-21.551,-21.366,-23.830,-24.066,-21.184,-21.723
-31.396,-25.967,-23.571,-24.105,-30.716,-31.693,-24.553,-23.840,-21.937,-21.974,-29.436,-28.939,-32.838,-33.054,-28.986,-29.428
-39.714,-32.742,-30.026,-30.836,-39.111,-40.603,-31.276,-30.491,-27.900,-28.374,-37.589,-37.074,-41.646,-41.867,-36.675,-37.607
-45.973,-37.824,-34.290,-35.379,-44.996,-47.136,-36.092,-34.642,-32.244,-32.773,-43.585,-42.554,-47.562,-48.189,-41.978,-43.475
-47.447,-39.081,-35.487,-36.756,-46.591,-48.584,-37.089,-35.925,-33.594,-33.885,-45.141,-44.406,-49.210,-50.013,-43.540,-44.987
-43.040,-35.442,-32.712,-33.400,-42.767,-44.366,-33.884,-32.569,-30.572,-30.966,-41.242,-40.392,-45.151,-45.587,-39.656,-40.745
-32.602,-27.156,-24.828,-25.316,-32.416,-33.490,-25.401,-24.893,-23.054,-23.711,-31.124,-30.954,-34.358,-34.985,-30.527,-31.341
-18.016,-14.627,-13.515,-13.517,-17.597,-18.315,-13.480,-13.570,-12.454,-12.771,-16.679,-16.442,-18.523,-19.022,-16.232,-16.387
26.415,23.114,20.494,21.000,27.006,28.229,22.221,20.783,19.885,19.499,26.061,25.447,27.953,28.485,25.183,25.867
43.801,38.268,33.443,34.785,44.672,46.853,36.134,34.489,32.509,32.263,42.865,42.532,46.695,46.894,41.517,42.771
31.885,27.608,24.030,24.995,32.255,34.141,26.249,24.993,23.566,23.556,31.143,30.884,34.007,33.762,30.375,30.584
41.795,36.339,31.826,32.771,42.318,44.264,34.257,32.944,30.694,30.797,41.475,40.391,44.629,44.993,39.381,40.717
45.928,40.387,34.489,35.774,46.716,48.949,37.589,36.162,33.577,33.554,45.391,44.227,49.420,49.686,43.490,44.512
44.550,39.241,33.821,34.449,45.543,47.091,36.627,34.859,32.529,33.035,44.039,42.721,47.635,47.852,42.057,42.516
38.563,33.942,29.512,29.757,39.480,40.630,31.794,30.016,28.219,28.451,38.044,37.139,40.936,41.314,36.466,36.881
30.173,26.721,23.190,23.388,31.045,32.604,25.295,23.334,22.274,22.116,29.927,29.442,31.903,32.674,28.926,28.876
21.786,19.869,16.894,16.964,22.878,23.777,18.403,17.091,16.276,16.340,22.148,21.623,23.642,23.944,20.929,20.784
15.862,14.349,12.142,12.113,16.858,17.175,12.812,12.517,11.748,12.127,16.094,15.881,16.958,17.516,15.230,15.126
13.010,11.513,10.041,10.194,14.010,14.468,11.019,10.530,9.806,10.207,12.970,13.477,14.249,14.532,13.003,12.515
13.528,12.413,10.767,11.115,15.013,15.633,12.171,11.447,10.699,11.094,14.009,14.320,15.390,15.751,13.833,13.563
17.447,15.872,13.548,14.022,18.479,19.088,15.309,14.641,13.437,14.100,17.808,17.799,19.316,19.604,16.962,16.943
22.097,20.139,17.253,17.706,22.896,23.694,19.133,18.018,16.819,17.556,21.802,22.466,23.924,24.557,21.233,21.491
25.434,22.804,19.698,20.313,26.586,27.223,21.677,20.674,19.211,19.886,25.187,25.703,27.720,28.240,24.385,24.471
25.422,23.077,20.088,20.169,26.576,27.375,21.494,20.311,19.097,20.117,25.289,25.289,27.732,28.026,24.755,24.564
20.559,18.548,16.061,16.036,21.579,22.437,17.708,16.693,15.553,16.149,20.686,20.575,22.649,22.703,19.764,19.777
11.085,10.280,8.672,8.552,11.713,12.276,9.765,9.089,8.062,8.911,10.713,11.164,12.811,12.387,10.840,10.377
-3.057,-1.611,-2.217,-2.355,-2.489,-2.136,-1.382,-1.773,-2.338,-1.478,-2.574,-2.146,-2.329,-2.873,-2.988,-2.928
-19.097,-15.827,-14.453,-15.542,-18.972,-19.583,-14.547,-14.038,-14.050,-13.524,-18.421,-17.459,-19.654,-20.579,-18.059,-18.439
-35.399,-29.704,-26.655,-27.779,-35.181,-36.400,-27.408,-26.791,-25.339,-25.305,-34.151,-32.977,-36.826,-37.352,-33.588,-33.543
-48.484,-40.900,-36.313,-37.952,-48.531,-50.094,-38.484,-36.996,-35.054,-34.789,-46.526,-45.334,-50.880,-51.147,-45.786,-46.229
-56.209,-47.913,-42.526,-44.157,-56.635,-58.324,-44.724,-43.342,-41.032,-40.768,-54.673,-52.957,-59.481,-60.008,-53.257,-54.061
-57.893,-49.183,-43.916,-45.183,-58.239,-59.748,-45.995,-44.617,-41.843,-41.862,-56.286,-54.471,-60.507,-61.705,-54.549,-55.580
-53.318,-44.919,-39.842,-41.602,-53.406,-54.841,-42.087,-40.787,-38.477,-38.768,-51.780,-49.961,-55.595,-56.776,-50.081,-51.405
-43.360,-36.662,-32.622,-34.133,-43.760,-45.075,-34.445,-33.274,-31.402,-31.875,-41.992,-40.814,-45.776,-46.111,-41.069,-41.498
-0.419,-0.115,0.028,-0.314,-0.115,-0.121,0.186,-0.069,0.235,-0.291,-0.117,0.048,-0.177,-0.076,-0.544,0.030
-0.598,-0.087,0.372,-0.108,-0.073,-0.363,0.233,-0.149,-0.115,0.218,-0.505,-0.168,0.003,0.064,-0.650,-0.115
-0.752,0.036,0.201,-0.283,-0.235,-0.402,0.211,0.059,-0.209,0.083,-0.366,0.282,0.083,0.196,-0.465,0.090
-0.623,0.220,0.273,-0.065,0.059,0.386,0.130,-0.011,-0.231,0.069,-0.417,0.662,-0.155,0.035,-0.523,0.062
-0.657,0.336,0.380,-0.166,-0.343,-0.118,0.014,0.111,-0.039,-0.125,-0.353,0.653,0.088,-0.148,-0.696,0.113
-0.312,0.446,0.325,-0.031,-0.540,-0.396,0.348,0.140,-0.221,0.183,-0.399,0.294,0.446,-0.111,-1.025,-0.133
-0.758,0.474,-0.073,0.023,-0.326,0.043,0.357,0.059,-0.200,0.236,-0.721,0.023,0.138,0.032,-0.889,0.070
-0.410,0.478,-0.009,-0.260,-0.247,0.514,0.512,0.207,-0.047,-0.042,-0.696,0.272,0.003,0.068,-0.789,-0.135
-0.395,0.422,0.445,-0.305,-0.376,0.293,0.324,0.402,-0.099,0.377,-0.854,-0.149,-0.101,0.041,-1.197,-0.088
-0.416,0.049,0.095,-0.186,-0.233,0.257,-0.132,0.104,-0.180,0.299,-0.793,-0.038,0.389,-0.053,-0.523,-0.236
-0.251,-0.055,-0.117,-0.367,-0.206,0.011,0.210,0.126,-0.038,0.116,-0.739,0.324,0.154,-0.133,-0.823,-0.335
-0.054,0.286,-0.144,-0.369,0.084,0.153,0.468,0.220,-0.079,0.166,-0.901,-0.020,0.254,0.604,-0.246,-0.028
0.206,0.079,-0.222,-0.379,0.043,0.234,0.468,0.108,-0.170,0.195,-0.775,-0.367,0.384,0.672,-0.324,-0.046
0.313,-0.011,-0.316,-0.199,-0.018,0.341,0.579,0.073,0.058,-0.110,-0.795,-0.507,0.294,0.460,0.030,-0.029
0.233,0.101,-0.241,-0.462,0.156,0.023,0.470,0.182,0.068,0.191,-0.287,-0.519,0.536,0.435,-0.013,-0.049
0.362,0.163,-0.166,-0.507,0.143,0.012,1.197,0.518,0.004,0.096,-0.439,-0.013,0.255,0.189,0.257,-0.103
0.176,-0.376,-0.233,-0.300,0.121,0.381,0.891,0.263,-0.045,-0.344,-0.701,-0.003,0.303,0.327,0.599,-0.204
0.048,-0.226,-0.604,-0.122,-0.253,0.388,0.611,0.263,-0.041,-0.035,-0.523,0.242,0.420,0.482,0.345,-0.219
0.157,-0.233,-0.372,-0.220,-0.117,0.068,0.568,-0.291,0.118,-0.116,-0.646,-0.172,0.486,0.279,0.340,-0.426
0.269,-0.038,-0.099,-0.193,0.079,-0.395,0.389,0.087,0.043,-0.401,-0.331,-0.405,0.145,0.304,0.059,-0.667
0.178,-0.113,-0.252,-0.192,-0.146,-0.389,0.189,0.034,0.423,-0.562,-0.136,-0.470,0.320,0.058,-0.267,-0.214
0.024,-0.053,-0.459,-0.364,-0.273,-0.331,0.349,0.081,0.294,-0.358,-0.278,-0.825,0.233,0.176,0.031,-0.226
-0.130,-0.150,-0.211,-0.213,-0.100,-0.253,0.414,-0.204,0.314,-0.480,-0.424,-0.311,0.244,0.163,-0.086,-0.189
0.159,-0.169,-0.322,-0.134,-0.114,-0.179,0.220,-0.119,0.161,-0.359,-0.181,-0.106,0.254,-0.038,-0.169,-0.110
0.138,0.020,-0.586,0.010,-0.371,-0.145,0.260,-0.033,0.123,-0.201,-0.136,-0.098,0.087,0.188,-0.191,-0.044
0.210,0.353,-0.382,-0.136,0.007,-0.246,0.306,-0.076,-0.164,-0.124,0.082,-0.428,-0.170,-0.017,-0.217,0.279
0.227,0.159,-0.533,-0.328,-0.147,-0.480,0.447,0.011,-0.189,-0.217,0.138,-0.298,-0.132,0.089,-0.338,0.073
0.089,0.230,-0.388,-0.377,-0.015,-0.463,0.261,0.086,0.054,-0.325,-0.078,-0.299,-0.267,0.456,-0.217,0.029
0.109,0.305,-0.188,-0.284,-0.105,-0.437,0.327,0.204,-0.113,0.007,0.418,-0.210,-0.145,0.232,-0.224,0.121
0.429,0.185,-0.153,-0.424,0.011,-0.310,0.195,0.410,-0.062,-0.146,0.158,-0.620,-0.209,0.231,0.178,0.346
-0.006,0.451,-0.378,-0.259,-0.010,-0.655,0.338,0.699,-0.149,-0.089,0.271,-0.584,-0.136,-0.157,-0.094,0.294
0.021,0.738,-0.234,-0.615,-0.187,-0.519,0.542,0.543,-0.217,-0.762,-0.120,-0.720,-0.171,-0.275,-0.425,0.096
0.014,0.654,-0.236,-0.467,-0.009,-0.422,0.398,0.452,0.019,-0.266,-0.190,-0.574,-0.169,0.200,-0.161,-0.318
0.169,0.752,-0.128,0.060,0.103,-0.633,0.757,0.550,0.252,-0.057,-0.333,-0.227,-0.640,0.318,-0.141,-0.212
0.072,0.559,-0.153,-0.277,-0.109,-0.676,0.359,0.246,0.067,-0.070,-0.598,-0.300,-0.639,0.353,-0.480,-0.182
-0.098,0.681,-0.070,-0.320,-0.416,-0.344,0.623,0.217,0.016,0.048,-0.134,-0.293,-0.576,0.371,-0.510,-0.401
-0.088,0.533,-0.017,-0.344,-0.262,-0.298,0.855,0.892,0.018,-0.398,-0.183,-0.525,-0.599,0.547,-0.224,-0.006
0.332,0.332,-0.003,-0.210,-0.034,-0.409,0.684,0.444,-0.142,-0.518,-0.298,-0.252,-0.562,0.052,-0.254,0.170
0.364,0.150,-0.032,-0.403,-0.011,-0.372,0.433,0.261,-0.021,-0.591,-0.383,0.112,-0.229,-0.117,0.169,-0.167
0.114,0.158,0.276,-0.496,0.088,-0.428,0.457,0.112,0.066,-0.384,-0.525,0.001,-0.399,-0.163,-0.129,-0.592
0.008,0.544,0.016,-0.569,0.189,-0.508,0.655,0.337,0.238,-0.040,-0.400,-0.290,-0.348,-0.144,0.026,-0.435
0.268,0.060,-0.299,-0.694,0.095,-0.479,0.384,0.189,0.010,-0.075,-0.418,-0.463,-0.188,-0.116,-0.142,-0.454
0.485,0.065,-0.153,-0.386,0.015,-0.360,0.548,0.158,-0.168,-0.246,-0.260,-0.353,-0.112,0.094,-0.124,-0.247
0.324,0.001,-0.257,-0.668,0.058,0.007,0.558,0.093,-0.250,-0.221,0.099,0.110,-0.127,0.085,-0.368,-0.256
0.152,0.276,-0.080,-0.865,-0.243,-0.352,0.678,0.117,-0.029,-0.361,-0.108,-0.342,-0.146,-0.093,-0.528,-0.250
0.041,0.319,-0.175,-0.762,-0.207,-0.470,0.348,0.162,0.045,-0.326,-0.186,-0.165,0.055,-0.074,-0.385,-0.568
0.011,-0.182,-0.196,-0.739,-0.266,-0.269,0.323,0.318,0.207,-0.275,-0.193,-0.189,-0.134,0.126,-0.244,-0.636
-0.409,-0.063,0.169,-0.988,-0.543,-0.374,0.099,0.066,-0.004,0.208,-0.508,-0.113,0.016,0.112,-0.493,-0.282
-0.233,0.159,0.204,-1.197,-0.747,-0.436,0.220,0.189,0.230,0.302,-0.550,-0.109,0.052,0.204,-0.399,-0.414
0.138,0.192,-0.293,-0.713,-0.100,-0.411,0.471,0.402,0.231,0.313,-0.410,-0.181,-0.138,0.209,0.063,-0.504
0.225,0.449,-0.196,-0.666,-0.096,-0.278,0.200,0.224,0.316,0.226,-0.240,-0.016,-0.122,0.020,-0.065,-0.228
0.123,0.495,-0.546,-0.410,-0.346,0.131,-0.034,-0.035,-0.115,0.447,-0.281,-0.154,-0.290,0.496,-0.382,-0.055
0.046,0.500,-0.293,-0.493,-0.181,0.221,0.504,-0.070,0.277,0.187,-0.105,0.102,-0.234,0.569,-0.319,-0.147
0.044,0.574,-0.511,-0.189,-0.049,0.113,0.639,-0.112,0.372,-0.297,-0.369,-0.393,-0.409,0.249,-0.249,0.003
0.208,0.422,0.002,-0.508,0.363,-0.092,0.535,-0.037,0.456,-0.122,-0.114,-0.061,-0.041,0.389,-0.390,-0.169
0.121,0.475,-0.121,-0.273,0.054,-0.642,0.875,0.261,0.202,-0.141,-0.120,0.089,0.049,0.438,-0.392,-0.258
-0.126,0.312,-0.228,-0.183,-0.275,-0.479,0.487,0.135,0.435,-0.192,-0.106,0.087,-0.163,0.952,-0.514,-0.444
0.130,0.451,-0.533,-0.307,-0.024,-0.649,0.423,-0.148,0.536,-0.190,0.276,0.047,0.073,0.428,-0.188,-0.504
0.232,0.555,-0.648,-0.474,-0.012,-0.375,0.394,-0.114,0.489,0.040,0.323,-0.183,-0.050,0.300,0.075,-0.459
-0.024,0.716,-0.498,-0.286,0.054,-0.558,0.346,-0.145,0.580,0.003,0.165,-0.210,-0.286,0.070,-0.050,-0.459
0.289,0.627,-0.610,-0.346,-0.164,-0.687,0.146,-0.085,0.236,-0.106,0.334,-0.359,0.093,0.087,-0.181,-0.395
0.109,0.279,-0.232,-0.370,-0.025,-0.344,0.643,-0.012,0.088,-0.197,-0.063,0.280,-0.030,0.103,-0.187,-0.139
0.044,0.417,-0.295,-0.211,-0.314,-0.509,0.384,-0.189,0.388,0.019,-0.283,-0.064,-0.182,0.219,-0.276,0.128
0.382,0.184,-0.413,-0.340,-0.130,-0.274,0.141,-0.060,0.428,0.309,-0.123,-0.225,-0.275,0.100,0.253,-0.365
0.185,0.301,-0.628,-0.509,-0.328,-0.319,0.373,-0.069,0.372,0.284,-0.339,0.203,-0.320,-0.082,-0.054,-0.522
-0.105,0.259,-0.536,-0.148,-0.299,-0.219,0.389,0.046,0.160,0.233,-0.040,-0.070,-0.772,0.086,0.080,-0.284
-0.238,0.339,-0.178,-0.287,-0.019,-0.328,0.415,-0.458,-0.041,-0.159,0.388,-0.125,-0.638,0.148,0.041,-0.610
-0.045,0.301,-0.471,-0.073,-0.001,-0.611,0.414,-0.205,-0.185,0.011,-0.028,0.119,-0.283,-0.120,-0.050,-0.292
-0.165,0.279,-0.484,0.125,-0.254,-0.374,0.214,-0.068,-0.361,-0.077,0.146,-0.080,0.245,-0.238,0.197,-0.632
-0.288,0.078,-0.145,0.165,-0.197,-0.511,0.440,-0.361,-0.410,-0.098,0.012,0.049,-0.321,-0.273,-0.229,-0.876
0.176,-0.054,0.170,0.159,-0.125,-0.154,0.405,-0.155,-0.103,-0.017,-0.078,-0.199,-0.524,-0.214,-0.123,-0.363
0.376,0.150,0.384,0.202,-0.240,0.114,0.249,-0.321,0.054,0.094,0.211,0.124,-0.251,-0.256,-0.438,-0.080
-0.431,0.357,0.068,-0.117,-0.438,-0.334,0.509,-0.136,-0.194,-0.163,-0.018,-0.176,0.016,-0.320,-0.305,-0.277
0.304,0.260,0.299,0.126,-0.390,-0.545,0.301,0.024,-0.030,-0.104,0.171,-0.123,-0.024,0.133,-0.470,0.174
0.224,0.282,0.251,-0.215,-0.278,-0.227,0.368,-0.037,-0.073,-0.039,0.197,0.067,-0.299,0.115,-0.388,0.183
0.567,0.419,-0.138,-0.376,-0.297,-0.048,0.231,-0.353,0.013,0.005,0.361,0.064,-0.368,0.290,-0.239,-0.181
0.341,0.560,-0.202,-0.378,-0.360,0.119,0.225,-0.148,-0.013,-0.309,0.262,0.368,-0.251,0.090,-0.404,0.044
0.670,0.450,-0.431,-0.261,-0.333,-0.267,0.173,-0.073,-0.113,-0.269,0.134,-0.007,-0.000,-0.047,-0.631,-0.105
0.936,0.397,-0.510,-0.013,-0.320,-0.283,0.227,0.036,-0.375,-0.512,-0.039,0.098,0.042,0.090,-0.171,-0.095
0.371,0.125,-0.610,-0.298,-0.469,-0.246,-0.120,-0.185,-0.233,-0.593,0.071,0.044,0.003,0.076,-0.026,0.001
0.564,0.106,-0.981,-0.327,-0.666,-0.436,0.106,0.202,-0.001,-0.219,0.638,-0.117,-0.126,0.418,-0.240,-0.181
0.107,0.064,-0.783,0.044,-0.575,-0.234,0.232,0.112,0.214,-0.281,0.251,-0.303,0.064,0.388,-0.306,-0.407
-0.076,0.493,-0.744,0.408,-0.636,-0.050,0.086,0.179,0.191,-0.192,0.150,-0.253,-0.315,0.270,0.089,-0.294
0.340,0.420,-0.611,0.226,-0.550,-0.402,0.297,0.453,0.308,-0.047,0.211,-0.385,-0.358,0.099,-0.158,-0.284
-0.187,0.116,-0.533,0.110,-0.675,-0.351,0.580,0.186,0.141,-0.025,0.170,-0.379,-0.272,0.124,-0.079,-0.234
0.068,0.020,-0.522,-0.088,-0.652,-0.465,0.719,0.443,-0.089,-0.034,0.112,-0.449,-0.357,0.116,0.016,-0.351
0.093,-0.013,-0.683,0.269,-0.384,-0.045,0.538,0.373,0.226,-0.134,0.142,-0.818,-0.348,0.100,-0.190,-0.604
0.266,0.361,-0.610,-0.042,-0.179,-0.262,0.372,0.168,0.042,-0.129,-0.435,-0.298,-0.049,-0.070,-0.495,-0.157
0.088,0.211,-0.857,-0.270,-0.723,-0.159,0.246,-0.331,-0.088,-0.149,-0.454,-0.592,-0.150,0.037,-0.333,-0.126
-0.176,-0.130,-0.903,-0.368,-0.511,-0.034,0.262,-0.218,0.083,0.370,-0.489,-0.533,0.146,-0.030,-0.499,-0.016
-0.187,-0.128,-0.739,-0.129,-0.705,0.172,0.140,0.166,-0.169,0.174,-0.673,-0.694,-0.198,0.181,-0.301,-0.219
-0.046,0.169,-0.423,-0.307,-0.484,-0.248,0.565,0.365,-0.178,0.024,-0.269,-0.692,0.033,0.226,-0.465,-0.283
-0.192,0.132,-0.426,-0.165,-0.707,-0.068,0.640,0.260,-0.008,-0.055,-0.438,-0.697,0.206,0.102,-0.402,-0.005
0.050,0.021,-0.446,-0.211,-0.366,0.124,0.748,0.212,-0.291,0.139,-0.209,-0.161,0.370,0.338,-0.260,-0.034
0.120,-0.531,-0.817,-0.464,-0.506,-0.252,0.602,0.203,-0.255,0.081,-0.193,-0.387,-0.050,0.071,-0.567,-0.126
0.088,-0.735,-0.339,-0.236,-0.602,-0.124,0.846,0.329,-0.343,-0.120,0.045,-0.494,0.573,0.123,-0.032,0.247
-0.225,-0.633,-0.426,-0.144,-0.207,-0.105,0.914,-0.396,-0.133,0.003,0.121,-0.707,0.205,0.292,0.223,0.224
-0.322,-0.357,-0.534,-0.212,-0.344,0.229,0.284,0.000,0.044,0.347,-0.005,-0.845,0.599,0.364,0.235,-0.056
-0.331,-0.200,-0.393,-0.105,-0.499,0.079,-0.270,-0.300,-0.117,0.309,0.080,-0.588,0.348,0.323,-0.253,-0.227
-0.215,-0.242,-0.262,0.169,-1.006,-0.015,0.442,-0.199,-0.363,0.029,0.205,-0.407,0.271,0.356,-0.493,-0.135
-0.291,-0.012,-0.159,-0.163,-0.673,-0.120,0.298,-0.397,-0.312,-0.158,0.252,-0.262,-0.005,0.578,-0.414,-0.027
-0.403,0.026,-0.504,0.031,-0.543,-0.097,0.658,-0.213,-0.330,-0.181,-0.103,-0.557,0.154,0.339,-0.303,-0.230
-0.333,-0.041,-0.268,0.527,-0.104,-0.467,0.186,-0.164,-0.206,-0.231,-0.174,-0.103,0.000,0.348,-0.146,-0.091
-0.383,0.087,-0.376,0.149,0.153,-0.244,0.080,-0.192,-0.161,-0.114,-0.117,0.020,-0.391,0.027,-0.380,-0.270
0.104,-0.301,-0.454,-0.061,-0.309,-0.132,0.057,-0.089,-0.281,0.005,-0.181,-0.060,-0.154,0.010,-0.183,-0.722
-0.085,-0.237,-0.040,0.116,-0.164,-0.386,-0.127,0.136,-0.101,-0.377,-0.189,-0.374,0.082,0.496,0.479,-0.209
-0.391,-0.333,-0.445,-0.329,-0.343,-0.308,0.284,0.099,-0.075,-0.239,-0.136,-0.034,-0.044,0.234,0.259,0.031
-0.437,-0.117,-0.157,-0.433,-0.356,-0.344,0.258,0.248,-0.146,-0.231,-0.014,-0.165,-0.053,0.137,0.070,-0.017
-0.312,-0.201,-0.100,-0.446,-0.149,-0.616,0.376,0.389,-0.139,-0.118,-0.015,-0.097,-0.256,0.374,-0.362,0.121
-0.055,-0.084,-0.543,-0.232,-0.285,-0.656,0.355,0.648,-0.163,-0.255,-0.067,-0.319,-0.005,0.004,-0.331,-0.064
-0.009,-0.244,-0.308,-0.129,-0.447,-0.807,0.391,0.583,-0.254,-0.008,-0.013,-0.347,0.182,0.206,-0.210,-0.004
0.042,-0.597,-0.355,0.002,-0.593,-0.917,0.322,0.404,-0.085,-0.005,-0.200,-0.384,0.182,0.024,-0.185,0.182
-0.542,-0.355,-0.371,-0.060,-0.714,-0.889,0.449,0.261,-0.309,-0.002,-0.113,-0.412,-0.161,0.187,-0.260,0.088
-0.514,-0.384,-0.185,-0.256,-0.752,-0.574,0.146,0.372,-0.181,0.289,-0.277,-0.337,-0.229,-0.394,-0.404,0.002
-0.366,-0.217,-0.126,-0.227,-0.574,-0.166,0.135,0.320,-0.146,0.065,-0.288,-0.285,-0.243,-0.035,-0.210,0.105
-0.335,-0.008,-0.116,-0.469,-0.847,-0.481,-0.051,0.251,-0.135,0.005,-0.296,0.025,-0.361,-0.070,-0.673,0.200
-0.342,0.181,-0.063,-0.396,-0.544,-0.563,0.097,0.386,0.139,-0.146,-0.263,-0.266,-0.122,-0.138,-1.092,0.241
-0.288,0.024,-0.113,-0.213,-0.579,-0.836,0.281,0.575,-0.033,-0.269,-0.647,-0.249,0.292,0.084,-0.917,-0.026
-0.081,-0.089,-0.185,-0.276,-0.483,-0.431,0.133,0.128,-0.079,-0.184,-0.215,-0.094,-0.068,0.039,-0.686,0.226
-0.055,-0.248,-0.138,-0.398,-0.483,-0.225,-0.003,0.019,-0.139,-0.190,-0.245,-0.061,-0.142,0.003,-0.508,0.279
-0.366,-0.514,-0.396,-0.589,-0.676,-0.622,0.256,0.340,-0.353,-0.109,0.124,0.111,-0.333,0.231,-0.438,0.122
-0.336,-0.621,-0.551,-0.601,-0.632,-0.684,0.313,0.216,-0.495,0.039,0.215,-0.501,-0.116,0.071,-0.824,-0.120
0.074,-0.402,-0.445,-0.351,-0.231,-0.275,0.102,0.051,-0.778,-0.037,0.337,-0.486,-0.260,0.149,-0.760,-0.256
-0.193,-0.347,-0.167,-0.526,-0.231,-0.253,0.250,0.158,-0.862,-0.181,0.341,-0.170,-0.220,0.291,-0.928,-0.144
-0.065,-0.306,-0.164,-0.766,-0.006,-0.201,0.113,0.206,-0.636,-0.042,0.159,-0.245,-0.459,0.156,-0.965,-0.226
-0.147,-0.348,-0.072,-0.370,0.283,-0.104,-0.076,0.178,-0.217,0.034,0.310,0.233,-0.525,0.174,-0.736,-0.365
-0.160,-0.197,0.003,-0.853,-0.022,-0.270,-0.114,0.057,-0.371,0.244,0.299,0.022,-0.164,0.244,-0.748,0.056
0.094,-0.318,-0.303,-0.829,0.072,-0.642,0.333,0.430,-0.348,-0.020,0.223,-0.160,0.029,0.392,-0.748,0.092
0.178,-0.230,-0.042,-0.595,0.037,-0.148,0.382,0.270,-0.404,-0.133,0.198,-0.062,-0.132,-0.096,-0.693,0.248
0.027,-0.506,-0.105,-0.639,0.434,-0.386,0.279,0.151,-0.303,-0.154,0.254,-0.103,0.241,-0.259,-0.882,0.210
0.042,-0.620,-0.237,-0.610,-0.088,-0.876,0.395,-0.095,-0.195,0.267,0.189,0.185,-0.345,0.164,-0.474,0.237
0.329,-0.116,-0.635,-0.668,-0.027,-0.437,0.135,0.028,-0.369,0.336,0.411,0.196,-0.119,0.042,-0.437,-0.188
-0.012,-0.281,-0.694,-0.352,-0.103,-0.403,0.303,-0.027,-0.297,0.141,0.341,0.619,-0.166,0.300,-0.686,-0.281
0.019,-0.250,-0.709,-0.358,-0.288,-0.373,0.233,0.445,-0.241,0.175,-0.058,0.438,-0.047,0.428,-0.412,-0.109
-0.306,-0.578,-0.713,-0.237,-0.751,-0.678,0.587,0.323,-0.347,0.036,-0.093,0.281,-0.430,0.317,-0.673,0.018
-0.300,-0.389,-0.371,-0.482,-0.244,-0.544,0.222,0.329,-0.376,0.028,0.376,0.659,-0.412,0.469,-0.594,0.087
-0.247,-0.033,-0.395,-0.396,0.054,-0.295,0.406,0.272,-0.380,0.120,0.164,0.636,-0.305,0.574,-0.631,0.236
-0.262,-0.404,-0.508,-0.222,0.244,-0.416,0.177,0.372,-0.375,-0.103,0.037,0.628,-0.195,0.497,-0.573,-0.142
0.158,-0.214,-0.612,-0.072,-0.159,-0.366,0.368,0.484,-0.181,-0.020,0.427,0.202,0.408,0.250,-0.327,0.051
0.068,0.094,-0.351,-0.177,-0.010,-0.306,0.364,0.679,-0.225,-0.045,0.188,0.138,0.069,0.141,-0.406,-0.101
0.203,0.100,-0.567,-0.187,-0.225,-0.098,0.266,0.625,-0.179,-0.113,0.305,0.074,-0.110,-0.055,-0.236,-0.387
-0.088,0.040,-0.488,0.065,-0.023,-0.334,0.008,0.366,-0.015,-0.039,0.057,0.085,-0.048,0.155,-0.173,-0.062
0.077,0.248,-0.435,-0.115,-0.212,-0.342,0.220,0.428,-0.141,0.188,0.168,-0.064,0.128,0.120,-0.363,0.011
0.467,0.050,-0.374,-0.198,-0.277,-1.042,-0.127,0.532,-0.176,0.113,0.039,-0.389,0.088,0.236,-0.667,-0.112
-0.034,0.466,-0.371,-0.184,-0.272,-0.797,0.192,0.710,-0.230,0.163,0.465,-0.570,0.240,0.444,-0.682,-0.243
-0.167,0.250,-0.168,-0.113,-0.291,-0.559,0.408,0.787,-0.639,-0.008,0.086,-0.338,-0.310,0.270,-0.539,0.055
-0.213,0.316,-0.302,-0.218,-0.342,-0.315,0.099,0.600,-0.561,0.024,0.361,0.007,0.064,0.445,-0.254,-0.141
-0.251,0.558,-0.224,-0.611,-0.232,-0.315,0.126,0.429,-0.375,0.150,0.174,-0.162,-0.170,0.497,-0.232,-0.120
0.036,0.539,0.194,-0.610,-0.152,-0.571,-0.097,0.253,-0.662,-0.063,-0.069,-0.256,-0.068,-0.007,-0.196,-0.610
-0.002,0.119,0.113,-0.607,-0.088,-0.564,-0.312,0.310,-0.693,0.227,0.148,-0.262,-0.243,-0.162,-0.113,-0.640
-0.134,0.186,-0.034,-0.545,-0.198,-0.959,-0.292,0.365,-0.360,-0.039,0.004,-0.032,-0.316,-0.403,-0.280,-0.537
-0.199,0.292,-0.479,-0.466,0.018,-1.123,-0.020,0.792,-0.529,0.038,-0.107,-0.078,0.159,-0.397,0.141,-0.241
-0.031,0.355,-0.211,-0.539,0.059,-1.009,0.072,0.348,-0.595,0.163,-0.271,-0.568,-0.014,-0.280,0.204,-0.072
-0.002,0.381,-0.448,-0.295,-0.120,-0.878,0.170,0.391,-0.532,0.318,-0.264,0.097,0.157,-0.011,0.283,-0.057
0.441,0.180,-0.184,-0.206,-0.351,-0.983,0.120,0.280,-0.370,-0.159,-0.164,-0.185,-0.001,-0.076,-0.291,-0.109
0.351,0.132,-0.099,-0.477,-0.601,-0.823,-0.128,0.360,-0.518,-0.177,-0.195,-0.445,0.098,0.149,-0.491,-0.214
0.075,0.195,-0.224,-0.555,-0.589,-0.822,0.051,0.615,-0.176,-0.068,-0.444,-0.283,0.203,-0.316,-0.003,-0.309
0.178,-0.006,-0.035,-0.258,-0.456,-0.651,0.111,0.265,-0.427,-0.085,-0.535,-0.356,0.301,-0.251,0.060,-0.185
0.262,0.009,-0.062,-0.312,-0.290,-0.888,0.208,0.436,-0.618,-0.171,-0.222,-0.327,0.246,0.143,0.056,-0.083
0.322,-0.227,-0.216,-0.351,-0.500,-0.803,0.166,0.425,-0.480,-0.028,0.101,-0.282,-0.105,-0.034,0.190,-0.057
0.287,-0.231,-0.322,-0.436,-0.125,-0.466,0.359,0.069,-0.385,-0.096,-0.173,-0.324,0.278,0.017,-0.216,0.096
-0.008,-0.083,-0.137,-0.170,-0.187,-0.589,-0.081,0.454,-0.574,-0.142,0.093,-0.152,0.288,0.385,-0.243,0.070
0.160,-0.125,0.155,-0.059,0.167,-0.933,-0.280,0.189,-0.608,-0.006,0.134,-0.184,0.105,0.090,0.003,-0.054
0.479,-0.013,-0.189,-0.499,-0.125,-0.711,-0.009,0.132,-0.863,-0.162,-0.175,-0.205,0.267,0.117,-0.044,-0.202
0.319,0.193,-0.444,-0.499,0.022,-0.628,0.282,0.263,-0.869,-0.254,-0.085,-0.294,0.179,0.140,-0.012,0.086
0.466,-0.257,-0.287,-0.583,-0.152,-0.627,0.019,0.472,-0.931,-0.164,0.172,-0.259,0.154,0.202,-0.054,-0.066
0.297,-0.383,-0.247,-0.567,-0.162,-0.717,0.124,0.264,-0.611,-0.321,0.047,-0.272,0.264,-0.016,0.267,-0.067
0.088,-0.492,-0.377,-0.325,0.032,-0.406,-0.224,0.156,-0.562,0.022,0.080,0.082,0.431,-0.309,0.456,-0.296
0.045,-0.141,-0.853,-0.037,-0.078,-0.356,-0.181,0.196,-0.885,-0.108,-0.187,-0.204,0.506,-0.162,0.255,-0.367
0.122,-0.341,-0.754,-0.128,-0.013,-1.117,-0.045,0.236,-1.068,-0.377,-0.193,-0.104,0.557,0.045,-0.411,-0.431
0.272,-0.479,-0.782,-0.202,-0.304,-0.902,-0.096,0.556,-0.746,-0.386,-0.283,-0.363,0.224,-0.003,0.040,-0.327
0.151,-0.455,-0.462,0.319,0.000,-0.920,-0.121,0.769,-0.669,-0.076,-0.031,-0.563,0.151,-0.235,0.034,-0.513
0.121,-0.556,-0.737,-0.000,-0.576,-0.481,-0.040,0.408,-0.535,0.168,0.035,-0.081,0.269,-0.263,-0.230,-0.641
0.492,-0.462,-0.975,-0.159,-0.373,-0.411,-0.036,0.184,-0.356,0.103,-0.274,-0.357,0.181,-0.055,-0.108,-0.085
0.332,-0.693,-0.757,-0.366,-0.442,-0.386,-0.136,0.459,-0.360,0.298,-0.048,0.074,0.284,-0.235,-0.071,-0.325
0.051,-0.513,-0.503,-0.367,-0.586,-0.372,0.033,0.615,-0.467,0.321,-0.292,0.046,0.582,-0.086,0.046,-0.666
0.331,-0.492,-0.679,-0.312,-0.244,-0.448,0.100,0.764,-0.706,0.114,-0.384,0.198,0.439,0.154,0.085,-0.741
0.423,-0.318,-0.627,-0.333,-0.174,-0.353,0.112,0.339,-0.610,0.047,-0.271,-0.178,0.324,0.401,-0.034,-0.445
0.357,-0.063,-0.428,0.210,-0.209,-0.502,-0.105,0.718,-0.750,-0.079,-0.289,0.061,0.304,-0.043,-0.127,-0.771
0.236,0.147,-0.315,-0.113,0.023,-0.720,0.052,0.626,-0.634,0.332,-0.401,-0.101,0.136,0.308,-0.097,-0.580
0.376,-0.310,-0.518,-0.005,0.159,-0.747,-0.229,0.267,-0.676,0.229,-0.352,-0.181,0.575,0.356,0.197,-0.339
0.315,-0.091,-0.332,-0.236,-0.114,-0.569,-0.140,0.332,-0.678,0.006,-0.212,-0.145,0.612,0.368,-0.005,-0.511
0.462,-0.086,-0.286,-0.296,0.226,-0.310,-0.234,0.368,-0.669,-0.160,-0.588,-0.055,0.482,0.098,0.316,-0.429
0.286,-0.144,-0.442,-0.374,-0.019,-0.204,-0.086,0.509,-0.516,-0.054,-0.741,-0.102,0.633,0.146,0.041,-0.202
0.253,0.007,-0.509,-0.337,-0.007,-0.270,-0.393,0.432,-0.456,-0.128,-0.363,0.074,0.111,-0.221,0.078,-0.635
0.334,-0.124,-0.391,-0.342,0.218,-0.660,-0.323,0.493,-0.465,-0.249,-0.614,-0.289,-0.044,0.026,-0.387,-0.381
0.443,-0.410,-0.547,-0.266,-0.074,-0.694,-0.253,0.000,-0.584,-0.181,-0.518,-0.488,-0.022,0.032,0.144,-0.175
0.162,-0.145,-0.264,-0.166,-0.030,-0.508,0.037,0.214,-0.689,-0.510,-0.369,-0.407,0.009,0.334,-0.054,-0.292
-0.073,-0.037,-0.562,-0.439,-0.224,-0.545,0.082,0.212,-0.621,-0.152,-0.448,-0.228,0.152,0.116,-0.183,-0.161
0.128,-0.282,-0.487,-0.321,-0.153,-0.441,0.362,0.389,-0.527,0.096,-0.239,0.061,0.150,-0.072,-0.072,-0.435
0.091,-0.235,-0.308,-0.062,0.057,-0.410,0.299,0.461,-0.162,0.012,-0.418,-0.177,0.087,0.042,-0.052,-0.508
0.002,-0.484,-0.300,0.124,-0.421,-0.292,-0.289,0.011,-0.370,-0.205,-0.269,0.153,0.268,-0.007,-0.400,-0.486
0.283,-0.532,-0.740,-0.129,-0.298,-0.766,-0.602,-0.028,-0.272,0.024,0.117,-0.043,0.194,0.029,-0.173,-0.109
0.154,0.043,-0.490,-0.406,-0.370,-0.776,-0.666,-0.037,-0.284,-0.276,-0.045,0.131,0.157,-0.049,-0.273,-0.186
0.178,-0.359,-0.593,-0.269,-0.390,-0.556,-0.698,-0.047,-0.393,-0.173,-0.376,-0.124,0.341,0.009,-0.355,-0.362
-0.040,-0.483,-0.729,-0.498,-0.230,-0.647,-0.273,0.343,-0.249,0.470,-0.330,0.101,0.323,0.119,-0.300,-0.800
0.489,-0.522,-0.601,-0.385,-0.353,-0.410,-0.384,0.675,-0.318,-0.133,-0.334,-0.481,0.134,0.134,-0.231,-0.472
0.433,-0.264,-0.935,-0.326,-0.414,-0.793,-0.498,0.521,-0.084,0.011,-0.356,-0.542,-0.140,-0.150,-0.126,-0.330
0.361,0.011,-0.892,0.090,-0.389,-0.505,-0.423,0.308,-0.233,-0.208,-0.663,-0.530,0.010,-0.004,0.252,-0.528
0.678,0.052,-0.806,0.092,-0.253,-0.347,-0.360,0.400,-0.401,0.012,-0.760,-0.107,0.042,-0.011,-0.056,-0.282
0.157,0.286,-0.400,-0.076,0.007,-0.241,-0.663,0.401,-0.309,-0.142,-0.612,0.108,0.034,-0.040,-0.070,-0.051
-0.135,0.416,-0.778,-0.099,-0.157,-0.302,-0.372,0.148,-0.370,-0.345,-0.447,-0.359,0.088,-0.126,-0.218,-0.212
-0.375,0.291,-0.530,-0.001,-0.320,-0.323,-0.194,0.461,-0.258,-0.039,-0.361,0.113,0.177,-0.090,-0.324,-0.040
-0.206,-0.047,-0.243,-0.235,-0.729,-0.378,-0.419,0.269,-0.393,-0.214,0.013,-0.129,0.494,-0.028,-0.016,-0.133
-0.056,0.155,-0.588,-0.455,-0.553,-0.299,-0.477,0.172,-0.572,-0.313,-0.021,-0.256,0.314,0.134,0.186,-0.493
0.050,0.032,-0.636,-0.252,-0.110,-0.255,-0.445,0.025,-0.334,-0.215,-0.436,0.061,0.231,0.106,0.227,-0.380
-0.053,0.158,-0.591,-0.222,-0.042,-0.487,-0.432,0.429,-0.853,-0.348,-0.608,-0.225,0.614,-0.077,0.326,-0.469
0.261,0.137,-0.489,-0.506,0.020,-0.410,-0.411,-0.239,-0.608,-0.177,-0.726,0.114,0.201,-0.190,0.270,-0.088
0.149,0.349,-0.567,0.067,0.062,-0.688,-0.093,-0.074,-0.642,-0.248,-0.631,0.437,-0.243,0.058,0.067,-0.121
0.353,0.277,-0.233,-0.259,-0.258,-0.673,-0.298,-0.190,-0.829,-0.213,-0.623,0.222,0.148,-0.021,-0.310,0.011
0.382,0.245,0.081,-0.037,-0.321,-0.726,-0.226,0.141,-0.796,-0.263,-0.407,0.108,-0.061,0.161,0.182,-0.089
0.326,0.161,0.010,-0.030,-0.293,-0.527,-0.161,0.095,-0.823,-0.089,-0.305,0.142,-0.130,-0.075,0.032,-0.157
0.178,0.019,-0.299,-0.065,-0.457,-0.537,-0.109,0.219,-0.527,-0.445,-0.283,0.227,0.297,0.140,-0.168,-0.281
0.109,-0.111,-0.166,-0.231,0.000,-0.889,-0.056,0.046,-0.520,-0.506,-0.154,0.064,0.072,0.022,0.024,0.054
-0.015,-0.248,-0.505,-0.219,-0.031,-0.999,-0.298,-0.005,-0.500,-0.338,0.197,0.068,0.111,0.453,-0.033,0.213
0.115,-0.094,-0.170,-0.073,-0.403,-0.409,-0.376,0.071,-0.405,-0.340,-0.046,-0.148,0.014,0.395,0.343,0.149
0.176,-0.120,0.022,-0.126,-0.088,-0.457,-0.504,0.085,-0.559,-0.228,-0.393,0.244,0.050,-0.140,0.151,-0.253
0.358,-0.056,-0.174,-0.288,0.104,-0.800,-0.336,0.218,-0.516,0.055,-0.676,0.079,-0.193,0.226,-0.125,-0.396
-0.039,-0.353,0.105,-0.401,-0.291,-0.440,0.074,0.040,-0.474,-0.223,-0.208,-0.230,-0.181,0.193,0.230,-0.267
0.073,-0.455,0.196,-0.142,-0.090,-0.395,0.094,0.026,-0.347,0.006,-0.481,0.085,-0.404,0.035,0.200,-0.270
0.152,-0.587,-0.168,-0.434,-0.149,-0.061,-0.250,0.091,-0.463,-0.452,-0.478,0.453,-0.227,0.196,-0.165,0.074
0.027,-0.677,-0.127,-0.474,-0.014,0.035,-0.074,0.263,-0.545,-0.240,-0.149,0.190,-0.160,0.747,-0.244,0.066
-0.130,-0.555,0.022,-0.523,-0.003,0.013,-0.291,0.347,-0.513,-0.042,-0.594,0.482,-0.278,0.839,-0.466,-0.051
0.271,-0.461,-0.275,-0.511,-0.135,-0.281,-0.354,0.171,-0.452,-0.147,-0.288,0.091,-0.202,0.283,-0.379,-0.097
-0.024,-0.357,-0.049,-0.485,-0.224,-0.588,0.112,-0.156,-0.355,0.191,-0.398,0.239,-0.121,0.099,-0.354,-0.177
-0.025,-0.578,-0.045,-0.068,-0.051,-0.626,-0.162,0.279,-0.371,-0.042,-0.174,-0.085,-0.408,0.196,-0.215,-0.025
-0.244,-0.505,-0.052,-0.102,-0.057,-0.388,-0.272,0.255,-0.360,-0.056,-0.306,0.155,-0.291,0.227,-0.391,0.159
-0.445,-0.525,-0.473,0.082,-0.273,-0.420,0.013,-0.125,-0.562,0.311,-0.279,0.206,-0.415,0.187,-0.432,0.532
-0.302,-0.745,-0.289,-0.237,-0.126,-0.525,0.115,0.101,-0.425,0.056,-0.282,0.001,-0.232,0.428,-0.050,-0.032
0.076,-0.503,-0.418,-0.149,-0.160,-0.524,-0.317,0.058,-0.247,-0.181,-0.389,-0.070,-0.074,0.350,-0.510,0.176
-0.074,-0.544,-0.327,-0.091,0.043,-0.778,-0.333,0.072,-0.316,0.176,-0.444,-0.104,-0.152,0.339,-0.417,-0.037
0.033,-0.616,-0.295,-0.120,-0.273,-0.683,-0.400,0.524,-0.332,-0.166,-0.322,0.422,0.246,0.309,-0.568,0.075
-0.201,-0.478,-0.313,-0.415,-0.034,-0.724,-0.353,0.647,-0.288,-0.334,-0.373,0.313,-0.097,0.366,-0.605,-0.075
-0.330,-0.343,-0.339,-0.370,-0.167,-0.578,-0.065,0.728,-0.280,-0.359,-0.452,0.498,0.338,-0.080,-0.466,-0.207
-0.290,-0.428,-0.137,-0.162,-0.229,-0.412,0.028,0.409,-0.541,-0.388,-0.679,0.537,0.042,0.434,-0.286,-0.003
-0.537,-0.614,-0.521,-0.478,-0.128,-0.408,-0.031,0.393,-0.427,0.079,-0.564,0.633,0.419,0.295,-0.164,0.168
-0.518,-0.606,-0.481,-0.255,-0.143,-0.219,-0.086,0.590,-0.642,-0.159,-0.257,0.512,-0.121,0.184,-0.213,0.387
-0.143,-0.526,-0.080,-0.269,-0.086,-0.143,-0.038,0.489,-0.589,-0.374,-0.454,0.506,-0.474,0.226,-0.399,0.472
0.040,-0.691,0.143,-0.343,-0.220,-0.102,-0.020,0.323,-0.532,-0.011,-0.605,0.374,-0.120,0.241,-0.443,0.059
0.058,-0.613,-0.200,-0.243,0.104,-0.399,-0.284,0.498,-0.630,-0.215,-0.659,0.407,-0.210,0.273,-0.514,-0.039
0.238,-0.082,-0.389,-0.240,0.031,-0.587,-0.769,0.498,-0.454,-0.145,-0.661,0.272,-0.005,0.293,-0.747,0.048
0.103,-0.361,-0.110,-0.299,-0.211,-0.519,-0.542,0.352,-0.785,-0.409,-0.719,0.431,0.036,0.455,-0.643,-0.221
0.283,-0.665,-0.230,-0.260,-0.261,-0.888,-0.059,0.577,-0.644,-0.249,-0.456,-0.032,-0.172,0.515,-1.114,-0.366
0.093,-0.390,-0.276,-0.488,-0.130,-0.611,-0.393,0.427,-0.559,-0.014,-0.351,0.013,-0.694,0.567,-0.970,-0.166
0.273,-0.292,0.045,-0.332,-0.257,-0.298,-0.291,0.804,-0.744,-0.059,-0.512,0.558,-0.470,0.622,-0.450,-0.074
0.358,-0.149,-0.033,-0.225,0.090,-0.036,-0.425,0.410,-0.650,-0.034,-1.120,0.394,-0.377,0.412,-0.321,0.077
0.372,-0.237,-0.161,-0.551,0.105,0.484,-0.163,0.164,-0.768,0.094,-0.944,0.321,-0.754,0.320,-0.478,0.061
0.497,-0.267,-0.398,-0.331,-0.354,0.302,-0.255,0.186,-0.662,0.172,-0.895,0.361,-0.364,0.414,-0.459,0.078
0.410,-0.322,-0.300,-0.347,-0.106,0.098,-0.304,0.600,-1.016,0.095,-0.549,0.203,-0.090,0.350,-0.390,0.036
0.687,-0.252,-0.082,-0.263,0.201,0.094,-0.371,0.663,-0.783,-0.142,-0.315,0.697,-0.103,0.186,-0.466,-0.220
0.597,-0.057,-0.020,-0.057,-0.083,0.307,-0.252,0.561,-0.558,-0.295,-0.247,0.339,-0.383,0.440,-0.504,-0.049
0.558,-0.143,0.006,-0.247,-0.159,0.168,0.194,0.452,-0.909,-0.364,-0.256,0.295,0.046,0.073,-0.567,0.023
0.618,-0.119,-0.154,-0.109,-0.481,-0.085,-0.315,0.409,-0.552,0.237,-0.172,0.257,-0.030,0.234,-0.543,0.241
0.284,-0.459,0.073,0.253,-0.206,-0.028,-0.490,0.366,-0.512,-0.295,0.042,-0.220,0.198,0.265,-0.611,-0.066
0.076,-0.244,-0.028,0.072,-0.480,-0.108,-0.495,0.028,-0.238,-0.118,-0.056,-0.070,-0.060,0.181,-0.959,-0.438
-0.241,-0.084,0.030,-0.247,-0.262,-0.154,-0.498,-0.140,-0.214,-0.341,-0.442,-0.220,0.223,0.373,-0.991,-0.218
0.130,0.327,0.002,-0.233,-0.114,0.182,-0.228,-0.231,-0.242,-0.072,-0.053,-0.161,0.094,0.275,-0.664,-0.063
0.183,-0.083,-0.162,-0.386,-0.150,0.300,-0.112,-0.192,-0.458,-0.013,-0.140,-0.263,-0.228,0.280,-0.662,0.040
0.010,-0.352,0.214,-0.235,-0.164,0.132,0.006,-0.194,-0.614,0.184,0.060,0.237,-0.054,0.400,-0.485,-0.100
0.044,-0.223,-0.359,-0.165,-0.126,0.075,0.000,-0.002,-0.362,0.214,0.014,0.038,-0.279,0.385,-0.719,-0.084
0.080,-0.020,-0.479,-0.094,-0.327,0.110,-0.178,0.110,-0.524,0.416,0.255,0.703,-0.304,0.343,-0.304,-0.059
0.051,-0.087,-0.395,0.009,-0.388,0.265,0.021,0.257,-0.405,0.250,0.049,0.735,-0.265,0.503,-0.232,0.092
-0.014,-0.014,-0.377,-0.241,-0.118,0.595,0.440,0.492,-0.649,0.245,0.390,0.846,0.117,0.451,-0.345,-0.287
0.171,-0.245,-0.172,-0.307,-0.010,0.291,0.335,0.607,-0.444,0.241,0.617,0.249,0.036,0.190,-0.592,0.040
0.459,-0.086,-0.216,-0.221,0.048,0.184,0.115,0.804,-0.723,0.077,0.288,0.061,0.019,0.084,-0.192,-0.024
0.027,-0.470,-0.513,-0.353,-0.355,0.334,0.006,0.550,-0.530,-0.112,0.499,0.374,0.021,0.295,-0.036,0.111
0.185,-0.077,-0.293,-0.528,-0.463,0.576,-0.615,0.985,-0.547,0.164,-0.303,0.209,0.056,0.249,0.274,0.324
-0.035,-0.225,-0.357,-0.162,-0.358,0.481,-0.542,0.677,-0.531,0.164,-0.109,0.030,-0.033,0.614,0.053,0.417
0.361,-0.287,-0.090,0.034,-0.408,0.540,-0.625,0.173,-0.550,-0.191,-0.352,-0.218,-0.272,0.339,-0.092,0.346
0.099,-0.142,-0.215,-0.141,-0.254,0.362,-0.273,0.423,-0.630,-0.034,-0.335,-0.078,-0.129,0.371,-0.077,-0.006
0.336,-0.127,-0.104,-0.559,-0.181,0.386,-0.119,0.136,-0.632,-0.168,-0.155,-0.024,-0.327,0.644,0.024,-0.099
0.359,0.067,-0.628,-0.562,-0.501,0.273,-0.395,0.490,-0.729,-0.287,-0.292,0.213,-0.715,0.212,-0.023,-0.072
0.205,-0.000,-0.430,-0.168,-0.460,0.483,-0.504,0.417,-0.652,-0.042,-0.289,0.073,-0.959,0.554,-0.195,-0.150
0.437,0.365,-0.374,-0.215,-0.516,0.685,-0.461,0.302,-0.694,-0.018,0.023,0.289,-0.481,0.553,0.109,-0.446
0.119,0.230,0.148,-0.207,-0.353,0.448,-0.205,0.296,-0.864,-0.050,0.080,-0.142,-0.565,0.508,-0.309,-0.167
0.538,0.236,-0.116,-0.605,-0.175,0.487,-0.427,0.063,-0.823,-0.287,0.151,-0.235,-0.468,0.288,-0.063,0.012
0.020,0.023,0.219,-0.489,-0.123,0.570,-0.330,0.233,-0.852,-0.086,-0.228,-0.172,-0.408,0.388,0.091,0.403
0.406,0.252,-0.266,-0.640,0.068,0.447,-0.339,0.383,-1.197,-0.308,0.309,0.086,-0.881,0.399,-0.467,0.075
0.496,0.453,-0.503,-0.699,-0.248,0.547,-0.574,0.177,-0.926,-0.413,0.286,0.252,-0.773,0.276,-0.436,-0.134
0.527,0.699,-0.275,-0.656,-0.047,0.681,-0.598,0.298,-0.732,-0.340,0.377,0.437,-0.452,0.151,-0.442,-0.043
0.510,0.636,-0.222,-0.477,-0.485,0.590,-0.086,0.401,-0.625,-0.261,0.155,0.425,-0.253,0.144,-0.351,-0.350
0.448,0.739,-0.322,-0.361,-0.247,0.207,-0.147,-0.103,-0.556,-0.436,0.053,0.085,-0.236,0.025,-0.290,-0.262
0.740,0.311,-0.612,-0.251,-0.260,0.481,-0.165,0.215,-0.490,-0.640,0.099,0.031,-0.006,-0.075,-0.834,0.013
0.301,0.142,-0.444,-0.366,-0.415,0.376,-0.030,0.207,-0.515,-0.429,-0.240,-0.253,-0.295,0.238,-0.719,-0.249
0.716,0.211,-0.482,-0.507,-0.157,0.261,0.113,0.141,-0.879,-0.069,-0.062,-0.104,-0.334,-0.035,-0.395,-0.113
0.312,0.530,-0.444,-0.720,0.136,-0.182,-0.186,0.198,-0.646,-0.619,0.081,-0.185,-0.589,0.162,-0.242,-0.236
0.183,0.514,-0.450,-0.761,0.079,0.025,-0.050,0.127,-0.295,-0.300,0.073,-0.017,-0.799,0.257,-0.391,-0.094
0.168,0.561,-0.139,-0.729,0.094,-0.092,0.170,0.254,-0.236,-0.388,-0.501,0.182,-0.552,-0.074,0.251,-0.209
0.330,0.367,-0.193,-0.726,-0.166,0.157,0.244,0.309,-0.232,-0.069,-0.389,0.309,-0.368,0.039,0.096,-0.281
0.133,0.132,-0.045,-0.492,-0.368,0.432,-0.136,0.602,-0.596,-0.353,0.076,0.348,-0.270,0.304,0.060,-0.005
0.027,0.543,-0.142,-0.497,-0.211,0.048,-0.266,0.566,-0.808,-0.780,-0.144,0.024,-0.334,0.028,-0.184,-0.020
0.115,0.341,0.088,-0.313,0.011,0.553,-0.176,0.386,-0.762,-0.226,-0.142,-0.432,-0.511,0.327,-0.165,0.344
0.292,0.138,0.300,-0.554,-0.585,0.465,-0.363,0.277,-1.028,-0.397,0.277,-0.210,-0.404,0.298,-0.385,0.008
0.257,0.231,0.177,-0.397,-0.443,0.678,-0.476,0.307,-0.714,-0.106,0.194,0.279,-0.507,0.113,0.170,0.409
0.523,0.608,0.386,-0.549,-0.438,0.010,-0.396,0.338,-0.574,-0.138,0.122,-0.065,-0.254,-0.174,0.005,0.227
0.430,0.411,0.042,-0.462,-0.257,0.350,-0.286,0.053,-0.573,0.180,-0.102,-0.618,-0.148,0.001,0.212,-0.034
0.443,0.244,-0.108,-0.606,-0.410,0.220,-0.286,-0.087,-0.559,0.188,-0.157,-0.096,-0.473,-0.098,0.131,0.136
0.472,0.234,-0.085,-0.813,-0.579,0.201,-0.258,0.161,-0.454,0.149,-0.156,-0.107,-0.066,0.078,-0.655,0.107
0.328,-0.066,0.029,-0.439,-0.540,0.546,0.021,0.397,-0.791,0.207,-0.169,-0.093,0.009,0.090,-0.235,0.032
0.404,0.028,0.015,-0.290,-0.499,0.320,-0.379,0.399,-0.744,0.140,-0.489,0.203,-0.156,0.329,-0.250,-0.094
0.535,0.035,-0.058,-0.525,-0.130,-0.065,-0.244,0.376,-0.672,-0.227,-0.246,-0.094,-0.070,0.260,-0.229,0.017
0.389,-0.037,0.085,-0.234,0.097,0.356,0.089,0.210,-0.456,-0.110,-0.244,-0.072,-0.308,0.366,-0.585,0.320
0.362,-0.111,-0.465,-0.184,-0.218,0.457,-0.089,-0.203,-0.637,0.034,-0.383,0.404,-0.151,0.284,-0.330,-0.182
-0.042,-0.001,-0.087,-0.458,0.106,0.472,-0.097,-0.075,-0.628,-0.361,-0.553,0.239,-0.290,0.137,0.039,-0.365
0.249,0.034,-0.088,-0.117,0.552,0.120,-0.397,-0.214,-0.525,-0.047,-0.684,0.108,0.193,0.110,0.001,-0.205
0.077,-0.092,-0.179,-0.391,-0.051,-0.046,-0.404,-0.056,-0.529,-0.056,-1.058,0.586,0.290,0.386,-0.089,-0.262
0.469,-0.089,-0.280,0.009,0.315,0.285,-0.133,-0.398,-0.631,0.064,-0.869,0.299,0.326,0.320,-0.156,0.060
0.470,-0.115,-0.383,0.027,-0.006,-0.057,-0.435,0.198,-0.503,-0.013,-0.945,0.370,0.263,0.364,-0.202,-0.364
0.292,-0.201,-0.025,0.019,-0.006,0.446,-0.178,0.263,-0.504,-0.164,-0.837,0.411,0.469,0.624,-0.217,-0.463
0.372,-0.163,-0.402,0.152,-0.321,0.100,-0.325,0.031,-0.520,-0.233,-0.718,0.116,0.006,1.003,0.098,-0.352
0.515,-0.118,-0.229,-0.191,-0.344,-0.049,-0.003,0.179,-0.874,-0.392,-0.525,0.379,-0.083,0.886,-0.087,-0.332
0.215,-0.007,0.041,-0.533,-0.116,-0.287,-0.165,-0.119,-0.655,-0.304,-0.395,0.148,-0.090,0.476,-0.016,-0.467
0.301,0.398,-0.077,-0.224,0.144,-0.039,-0.098,-0.225,-0.577,-0.325,-0.289,-0.326,0.016,0.445,-0.193,-0.476
0.254,0.116,0.113,-0.348,0.327,0.001,-0.537,-0.339,-0.683,-0.187,-0.342,-0.197,-0.113,0.300,-0.020,-0.495
0.231,0.138,-0.216,-0.368,0.367,-0.209,-0.267,-0.643,-0.748,-0.247,-0.595,0.077,-0.154,0.408,0.040,-0.372
0.298,0.185,-0.427,-0.125,0.146,0.023,-0.342,-0.424,-0.478,-0.157,-0.483,0.116,-0.446,0.499,0.147,-0.253
0.216,0.070,-0.544,-0.384,-0.219,0.131,-0.337,-0.116,-0.531,0.032,-0.270,0.146,-0.554,0.641,0.363,0.323
0.078,-0.272,-0.666,-0.492,-0.224,0.141,-0.312,-0.400,-0.563,-0.246,0.007,0.504,-0.128,0.407,0.662,0.040
0.004,-0.077,-0.739,-0.392,0.057,-0.126,-0.609,-0.748,-0.429,-0.329,0.029,0.486,-0.205,0.227,0.834,0.155
0.020,0.058,-0.362,-0.361,0.072,0.063,-0.685,-0.549,-0.649,-0.269,-0.186,0.500,-0.178,0.447,0.609,0.045
-0.098,0.071,-0.046,-0.213,-0.175,0.078,-0.475,-0.895,-0.446,-0.357,-0.294,0.461,0.088,0.148,0.743,-0.059
0.191,0.093,0.025,-0.232,-0.191,0.224,-0.432,-0.658,-0.555,-0.062,-0.470,0.708,-0.003,0.031,0.265,-0.329
-0.351,0.357,0.104,0.031,-0.201,0.218,-0.361,-0.551,-0.420,-0.355,-0.928,0.368,-0.164,0.497,0.356,-0.060
-0.144,0.059,-0.130,0.131,-0.027,-0.038,-0.342,-0.355,-0.709,-0.227,-0.483,0.359,-0.214,0.547,0.435,-0.273
0.144,0.417,-0.273,-0.132,0.156,0.312,-0.523,-0.221,-0.715,-0.094,-0.551,0.222,-0.304,0.629,0.366,0.169
0.121,0.326,-0.379,0.121,-0.261,-0.240,-0.477,-0.148,-0.328,-0.221,-0.426,0.346,0.149,0.379,0.236,0.109
-0.126,0.209,-0.205,-0.312,-0.650,-0.299,-0.317,-0.120,-0.362,-0.217,-0.361,0.478,0.040,0.290,0.194,0.144
-0.052,0.579,-0.218,-0.146,-0.549,-0.157,-0.276,-0.083,-0.349,-0.103,-0.270,0.457,-0.425,0.130,0.258,0.072
0.386,0.204,-0.246,-0.522,-0.413,-0.329,-0.191,0.027,-0.482,-0.465,0.061,0.738,-0.458,0.083,0.115,0.341
-0.173,0.025,-0.070,-0.170,-0.247,-0.153,-0.194,-0.100,-0.358,-0.340,-0.106,0.825,-0.771,0.114,0.399,0.112
0.021,0.014,-0.160,0.001,-0.171,-0.222,-0.306,-0.104,-0.571,-0.523,-0.306,0.336,-0.754,-0.056,0.537,0.106
-0.239,-0.134,0.035,-0.103,-0.328,0.126,-0.316,-0.041,-0.420,-0.169,-0.420,0.644,-0.568,0.183,0.242,0.088
0.123,-0.006,-0.399,0.248,-0.203,0.133,0.052,-0.067,-0.356,0.230,-0.414,0.404,-1.014,0.312,0.146,0.128
-0.097,-0.223,-0.326,-0.060,-0.338,0.394,-0.117,-0.055,-0.384,-0.125,-0.462,0.433,-0.554,0.282,0.235,-0.310
0.482,-0.085,-0.078,-0.261,-0.260,0.317,0.150,-0.062,-0.432,-0.433,-0.332,0.322,-0.354,0.098,0.351,0.024
-0.030,-0.224,-0.117,-0.030,0.074,0.086,-0.270,-0.032,-0.454,-0.287,-0.650,0.372,-0.371,0.109,0.100,0.211
-0.064,-0.106,-0.075,0.008,0.059,0.066,-0.265,0.002,-0.651,-0.405,-0.307,0.372,-0.328,0.310,-0.047,-0.204
0.160,0.187,-0.309,-0.400,0.046,-0.333,-0.176,-0.457,-0.449,-0.366,0.038,0.362,-0.363,0.516,-0.076,-0.239
0.022,0.117,-0.396,-0.445,-0.180,-0.259,-0.071,-0.510,-0.529,-0.091,-0.072,0.118,-0.566,0.439,-0.194,-0.507
0.376,-0.092,-0.241,-0.300,-0.093,-0.101,-0.001,-0.165,-0.767,-0.610,-0.154,0.388,-0.716,0.358,-0.150,-0.708
0.069,-0.107,-0.216,-0.401,0.054,-0.187,-0.236,0.051,-0.588,-0.478,0.154,0.658,-0.897,0.679,-0.205,-0.267
0.308,0.191,-0.281,-0.170,0.233,-0.064,-0.263,0.174,-0.685,-0.667,-0.142,0.232,-0.775,0.385,-0.526,-0.398
0.177,-0.079,-0.206,-0.393,-0.021,-0.301,-0.222,-0.169,-0.443,-0.587,-0.457,-0.030,-0.405,0.436,-0.202,0.171
0.279,0.198,-0.314,-0.332,-0.017,-0.588,-0.455,-0.107,-0.456,-0.226,-0.534,0.335,-0.083,0.598,-0.177,-0.013
0.072,0.246,-0.477,-0.417,0.317,-0.400,-0.213,-0.222,-0.725,-0.224,-0.143,0.548,-0.223,0.279,-0.251,-0.207
-0.157,0.328,-0.331,-0.165,0.093,-0.061,-0.290,-0.287,-0.562,-0.162,0.003,0.555,-0.493,0.017,-0.109,-0.323
0.074,0.467,-0.268,-0.664,0.151,-0.298,-0.385,-0.496,-0.372,-0.243,-0.345,0.416,-0.591,0.127,-0.074,-0.161
0.395,0.360,-0.250,-0.422,0.031,-0.042,-0.323,-0.545,-0.228,-0.309,-0.266,0.094,-0.388,-0.261,0.015,-0.281
0.339,0.105,-0.418,-0.376,0.040,0.263,-0.027,-0.324,-0.328,-0.415,-0.003,0.110,-0.514,-0.093,0.194,-0.113
0.213,0.349,-0.501,-0.250,0.149,0.098,-0.189,-0.349,-0.180,-0.353,0.073,0.095,-0.359,-0.089,0.108,-0.304
-0.074,0.134,-0.430,-0.306,0.287,-0.085,-0.079,-0.185,-0.414,-0.523,-0.243,-0.023,-0.084,-0.161,-0.080,-0.533
0.198,0.419,-0.166,-0.318,0.146,0.021,-0.251,-0.612,-0.469,-0.796,-0.377,-0.062,-0.227,0.121,-0.054,-0.428
-0.195,0.068,-0.264,-0.244,-0.194,0.015,-0.315,-0.280,-0.522,-0.616,-0.468,0.069,0.000,-0.085,0.235,0.089
0.238,0.370,-0.113,-0.076,-0.246,-0.153,-0.273,-0.358,-0.634,-0.380,-0.187,-0.170,-0.133,0.463,0.506,-0.126
0.184,0.457,-0.559,-0.419,-0.580,0.064,-0.426,-0.035,-0.433,-0.435,0.148,-0.013,0.054,0.618,0.417,-0.246
-0.194,0.856,-0.267,-0.209,-0.406,0.298,-0.121,-0.187,-0.219,-0.237,0.070,-0.013,-0.067,0.580,0.195,-0.149
-0.126,0.320,-0.424,-0.337,-0.156,0.072,-0.156,-0.229,-0.067,-0.378,0.194,0.211,-0.075,0.629,-0.121,0.063
-0.423,0.031,-0.458,-0.183,-0.152,-0.357,-0.353,-0.184,-0.281,-0.521,0.021,0.391,0.168,0.515,0.183,0.194
26.828,23.135,19.947,20.506,27.299,27.847,21.719,20.799,19.073,19.247,26.065,25.500,28.434,29.547,25.514,26.038
44.432,38.081,32.929,34.265,44.740,45.865,35.663,34.274,31.707,31.495,42.958,42.283,46.638,47.983,41.538,42.587
32.309,27.774,23.856,24.703,32.593,33.901,25.660,24.777,22.717,22.926,31.097,30.685,33.694,34.917,30.235,30.985
42.404,36.200,31.910,32.707,42.881,44.026,33.747,32.587,30.115,30.156,41.101,40.051,43.999,45.734,39.575,40.931
46.732,39.861,35.220,36.080,47.019,48.408,37.155,36.224,33.037,33.493,45.048,44.004,48.698,50.225,43.339,44.689
45.307,38.162,34.305,34.899,45.423,46.711,35.870,34.820,32.125,32.292,43.112,42.569,47.068,48.132,41.623,43.008
39.404,33.140,29.214,30.474,39.291,40.854,30.634,30.063,27.832,27.775,37.792,37.096,41.162,41.947,35.930,37.332
31.089,26.270,23.034,24.082,31.158,32.408,24.047,23.661,21.894,21.560,29.692,29.085,32.451,33.165,28.569,29.428
22.866,18.966,17.059,17.562,22.545,23.506,17.521,17.242,15.797,15.790,21.814,20.983,23.332,24.607,20.660,21.464
16.757,13.839,12.177,12.663,16.784,17.134,12.591,12.438,11.308,11.640,15.756,14.985,16.819,17.495,15.027,15.508
14.076,11.591,10.348,10.562,13.839,14.605,10.406,10.576,9.431,9.654,13.074,12.559,14.026,14.675,12.380,13.133
14.738,12.449,11.064,11.411,14.679,15.759,11.483,10.922,10.396,10.179,14.104,13.937,15.067,15.829,13.725,13.800
18.560,15.401,13.940,14.122,18.595,19.685,14.163,13.868,13.363,12.863,17.491,17.220,18.892,19.690,17.197,17.396
23.479,19.118,17.231,17.600,23.089,24.558,18.218,17.478,16.198,16.294,22.029,21.738,23.841,25.058,21.360,21.826
26.293,22.272,19.384,20.317,26.153,27.915,20.851,20.381,18.579,18.758,25.150,24.539,27.333,28.619,24.055,24.919
26.406,22.460,19.718,20.599,26.714,27.870,21.059,20.137,18.670,18.301,25.279,24.773,27.741,28.490,24.483,25.201
21.383,17.915,15.952,16.674,21.648,23.111,17.081,16.492,15.173,14.761,20.729,20.260,22.623,23.390,19.679,20.452
11.821,10.004,8.597,9.010,11.518,12.810,9.094,8.510,7.989,7.648,10.919,10.674,12.337,12.839,10.596,11.009
-2.156,-1.828,-2.109,-1.870,-2.829,-2.253,-2.272,-2.444,-2.311,-2.484,-2.688,-2.628,-2.655,-2.524,-2.390,-2.358
-18.561,-16.042,-14.391,-14.960,-19.387,-18.984,-15.839,-14.773,-13.913,-14.276,-19.235,-17.935,-19.847,-20.087,-17.574,-18.103
-34.610,-29.763,-26.477,-27.301,-35.642,-35.899,-28.923,-27.303,-25.647,-25.326,-34.323,-33.234,-37.106,-37.141,-32.993,-33.910
-47.620,-40.933,-36.409,-37.456,-48.956,-50.034,-39.323,-37.562,-35.362,-35.320,-47.135,-45.484,-50.736,-50.974,-45.404,-46.711
-55.752,-47.768,-42.508,-43.679,-56.812,-58.328,-45.600,-43.871,-41.036,-41.236,-54.698,-53.178,-59.261,-59.435,-52.527,-53.840
-57.543,-49.073,-43.955,-44.975,-58.316,-59.969,-46.543,-44.546,-42.063,-42.139,-56.478,-54.712,-60.936,-61.190,-54.093,-55.020
-52.666,-45.074,-40.595,-41.500,-53.768,-55.255,-42.702,-41.269,-38.726,-38.825,-51.589,-50.506,-55.938,-56.098,-49.748,-50.510
-43.033,-36.946,-32.996,-33.752,-44.021,-45.000,-34.973,-33.499,-31.804,-31.606,-42.251,-41.214,-45.568,-45.611,-41.033,-41.632
-30.535,-26.253,-23.122,-23.575,-31.167,-32.214,-24.862,-23.740,-22.834,-22.599,-30.289,-29.167,-31.920,-32.411,-29.246,-29.405
-17.467,-14.979,-13.527,-13.857,-18.085,-18.595,-14.711,-13.832,-13.044,-13.254,-17.313,-16.807,-18.324,-18.596,-17.363,-16.896
-6.429,-5.825,-5.455,-5.155,-6.751,-7.421,-5.767,-5.272,-5.073,-5.313,-6.848,-6.005,-6.964,-6.916,-7.256,-6.095
0.929,0.326,0.258,0.866,0.466,0.182,0.261,0.443,-0.100,-0.193,0.018,0.954,0.432,0.656,-0.187,0.370
3.790,2.891,2.559,3.143,3.439,3.472,2.544,2.470,2.028,1.969,2.711,3.671,3.596,3.934,3.150,3.035
3.135,2.463,1.916,2.349,2.789,2.710,2.109,1.523,1.660,1.296,2.174,2.820,2.907,3.155,2.420,2.545
0.135,0.016,0.132,0.106,0.180,-0.160,-0.222,-0.465,-0.293,-0.627,-0.301,0.477,-0.082,0.396,-0.380,-0.132
-2.763,-2.459,-2.162,-2.329,-3.142,-3.187,-2.293,-2.526,-2.309,-2.592,-3.250,-2.186,-3.277,-2.817,-3.189,-2.977
-3.499,-2.448,-2.538,-2.784,-3.884,-3.630,-3.124,-3.000,-2.745,-2.950,-4.421,-3.490,-4.032,-3.969,-3.848,-4.003
-0.555,-0.459,-0.503,-0.255,-0.372,-0.129,-0.543,-0.202,-0.533,-0.770,-1.289,-0.395,-0.630,-0.352,-0.808,-0.707
6.842,5.716,5.189,5.194,6.837,7.307,5.162,5.218,4.810,4.356,5.606,6.270,6.806,7.251,6.136,6.326
17.830,15.248,13.151,13.539,17.632,18.523,13.871,13.865,12.551,12.399,16.519,16.602,18.440,18.769,16.042,16.947
30.741,26.286,23.282,23.889,30.751,31.858,24.039,23.718,22.050,21.526,29.084,28.814,32.240,32.410,28.682,29.348
43.327,36.958,33.171,33.478,43.519,45.089,34.141,33.491,31.257,30.658,41.168,40.206,45.412,46.059,40.483,41.139
52.871,45.052,40.243,41.248,53.088,55.426,42.088,40.970,37.975,37.834,50.952,49.865,55.889,56.273,49.544,50.518
57.699,49.372,44.020,45.010,57.741,60.267,45.828,44.415,41.322,41.138,55.447,53.998,60.676,61.221,53.859,55.038
56.259,47.709,42.482,43.141,56.114,57.988,44.780,43.022,40.201,39.757,53.540,53.195,59.103,59.506,52.349,53.501
75.352,64.058,56.859,58.281,75.864,77.707,59.975,57.896,54.040,53.645,71.815,71.101,78.985,79.653,70.094,71.789
62.199,52.918,46.345,48.258,62.594,64.141,49.308,47.769,44.654,43.981,59.666,58.366,65.095,65.513,57.766,59.050
19.103,16.025,13.855,14.627,19.230,19.110,14.748,14.392,13.474,12.897,17.776,18.082,19.710,19.822,17.596,18.259
2.483,2.314,1.318,1.895,2.415,2.539,1.634,1.478,1.591,0.776,2.107,2.203,2.557,2.439,1.712,2.447
-11.509,-9.690,-9.377,-9.178,-12.141,-12.240,-9.745,-9.570,-8.879,-9.307,-11.733,-11.042,-12.279,-12.752,-11.121,-11.410
-21.581,-18.026,-16.522,-16.724,-21.931,-22.257,-18.023,-17.137,-15.887,-16.034,-21.571,-20.890,-23.006,-23.495,-20.570,-21.096
-26.324,-22.518,-20.288,-20.366,-26.600,-27.113,-21.724,-21.061,-18.992,-19.421,-26.218,-25.570,-28.183,-28.421,-25.007,-25.413
-26.452,-22.615,-20.216,-20.657,-27.028,-27.494,-21.794,-20.862,-19.001,-19.398,-26.386,-25.310,-27.563,-28.643,-25.213,-25.604
-22.729,-19.567,-17.495,-18.010,-23.719,-23.671,-18.887,-17.829,-16.680,-17.381,-23.154,-22.397,-23.556,-24.987,-21.711,-22.490
-17.979,-15.531,-14.339,-14.433,-18.923,-19.073,-15.300,-14.537,-13.547,-14.321,-18.611,-18.079,-19.456,-20.071,-17.266,-17.811
-14.325,-12.312,-11.521,-11.505,-15.335,-15.337,-11.901,-11.209,-10.869,-11.573,-14.812,-14.154,-15.440,-16.072,-13.905,-14.544
-13.556,-11.952,-10.824,-10.576,-13.873,-14.054,-11.161,-10.797,-10.309,-10.494,-13.888,-13.037,-14.562,-15.053,-13.003,-13.677
-16.208,-13.838,-12.946,-12.745,-16.832,-17.192,-13.326,-12.856,-12.207,-12.701,-16.484,-15.570,-17.028,-17.804,-14.935,-15.877
-22.391,-19.058,-17.506,-17.317,-22.601,-23.428,-18.211,-17.621,-16.778,-17.352,-22.544,-21.442,-23.422,-24.601,-20.959,-21.848
-30.343,-26.400,-23.726,-24.237,-31.171,-32.359,-24.856,-24.161,-22.632,-23.175,-30.477,-28.849,-32.564,-32.901,-28.729,-29.665
-38.740,-33.724,-30.251,-30.875,-39.432,-40.820,-31.544,-30.110,-28.475,-29.141,-38.507,-37.105,-41.545,-41.734,-36.411,-37.690
-44.806,-38.984,-34.725,-35.074,-45.573,-46.942,-36.357,-34.984,-32.844,-33.464,-44.354,-42.813,-47.670,-47.861,-42.174,-43.450
-46.272,-40.367,-36.093,-36.190,-47.317,-48.521,-37.687,-36.138,-33.893,-34.835,-45.659,-44.080,-49.318,-49.693,-43.440,-44.723
-41.760,-36.280,-32.726,-33.271,-42.959,-44.342,-34.240,-32.652,-30.997,-31.692,-41.414,-40.312,-44.393,-45.027,-39.541,-40.930
-31.875,-27.711,-25.125,-25.411,-32.630,-33.848,-26.351,-25.420,-23.952,-24.142,-31.574,-30.724,-33.703,-34.299,-30.353,-31.097
-17.136,-14.964,-13.658,-14.015,-17.775,-18.074,-14.388,-13.257,-13.008,-13.225,-16.788,-16.786,-18.115,-18.406,-16.363,-16.984
0.249,-0.245,-0.487,-0.100,-0.384,-0.168,-0.122,-0.158,-0.314,-0.349,-0.087,0.086,0.485,0.272,-0.160,-0.328
17.669,14.916,12.903,13.653,17.342,18.230,13.853,13.626,12.452,12.402,17.052,16.868,18.837,18.640,16.043,16.323
32.624,27.432,24.481,25.134,32.214,33.310,26.094,25.282,23.182,23.380,31.505,31.106,34.842,34.521,30.060,30.772
42.905,36.076,31.834,33.419,42.368,44.067,33.691,32.863,30.294,30.392,40.847,40.668,44.712,45.246,39.790,40.664
46.533,39.602,35.219,36.463,46.510,48.519,37.439,35.864,33.569,33.455,45.260,44.752,49.296,49.823,43.408,44.830
45.203,38.364,34.036,35.196,45.092,46.793,36.162,34.512,32.488,32.106,43.188,43.651,48.235,47.934,41.840,43.198
38.930,33.163,29.392,30.643,38.922,40.690,31.291,29.709,27.942,27.637,37.289,38.180,41.945,41.368,36.716,37.285
30.664,26.002,23.518,23.968,30.222,32.053,24.200,23.181,21.805,21.436,29.508,29.940,33.188,32.768,29.110,29.303
22.416,19.099,17.142,17.737,22.293,23.306,17.675,17.061,16.151,15.507,21.538,21.804,24.200,23.754,21.064,20.989
16.267,14.011,12.633,13.037,16.269,16.911,13.295,12.578,11.600,11.166,15.366,15.743,17.910,17.228,15.369,15.489
13.453,11.537,10.762,11.302,13.649,14.156,10.810,10.396,9.576,9.552,13.252,13.249,14.890,14.822,13.301,12.532
14.402,12.628,11.287,12.191,15.105,15.112,11.435,11.186,10.206,10.015,14.199,14.251,16.113,15.656,14.030,13.614
18.079,16.021,14.217,14.969,18.574,19.094,14.141,14.342,12.846,12.819,17.848,17.645,19.947,19.509,16.841,17.175
23.014,19.958,17.813,18.330,23.260,23.716,18.551,18.199,16.397,16.368,22.202,22.138,24.562,24.590,21.356,21.515
26.337,22.909,20.462,20.933,26.695,26.652,21.219,20.572,18.761,18.780,25.038,25.731,28.022,28.193,24.651,25.058
26.329,22.840,20.129,21.072,26.314,26.880,20.818,20.581,18.600,18.247,25.288,25.775,28.201,28.199,24.388,24.871
21.663,18.701,16.503,17.207,21.406,22.255,17.004,16.769,15.342,14.839,20.628,21.227,23.096,23.172,19.923,20.452
11.484,10.419,8.916,9.384,11.758,11.884,9.071,9.189,8.042,7.730,11.120,12.001,12.709,12.476,10.663,11.000
-2.829,-1.853,-1.625,-1.764,-2.492,-2.918,-2.238,-1.504,-2.026,-2.436,-2.383,-1.737,-2.185,-2.892,-2.445,-2.363
-18.878,-15.828,-13.908,-14.423,-18.963,-19.649,-15.297,-14.550,-13.912,-14.434,-18.302,-17.125,-19.276,-20.233,-17.594,-18.131
-34.987,-29.529,-26.043,-26.995,-35.241,-36.325,-28.225,-26.810,-25.610,-26.114,-34.013,-32.857,-36.445,-37.421,-32.853,-33.478
-48.138,-40.956,-35.963,-37.080,-48.132,-50.093,-38.797,-37.176,-34.942,-35.437,-46.594,-45.433,-50.574,-51.028,-45.351,-46.563
-29.243,-24.768,-21.352,-22.353,-29.261,-30.503,-23.758,-22.282,-21.479,-21.957,-27.929,-27.370,-30.461,-30.683,-27.272,-27.872
-31.052,-26.147,-22.998,-23.533,-30.505,-31.993,-24.880,-23.649,-22.633,-22.996,-29.544,-28.894,-32.357,-32.603,-29.198,-29.499
-53.184,-45.393,-40.170,-40.861,-53.194,-55.017,-42.698,-40.993,-38.754,-39.250,-51.452,-49.935,-55.572,-55.917,-49.754,-51.136
-43.389,-37.134,-33.067,-33.548,-43.748,-45.040,-34.696,-33.335,-31.714,-32.260,-41.945,-40.504,-45.435,-45.923,-40.757,-41.926
-31.116,-26.248,-23.390,-23.580,-31.233,-32.177,-24.611,-23.266,-22.645,-23.379,-29.819,-28.780,-32.011,-32.561,-29.395,-29.444
-18.096,-15.200,-13.414,-13.596,-18.413,-18.303,-14.170,-13.038,-13.319,-13.755,-16.949,-16.478,-18.236,-18.883,-17.331,-17.323
-7.019,-5.661,-5.186,-5.021,-7.396,-6.899,-4.883,-4.437,-5.542,-5.738,-6.317,-6.548,-6.714,-7.471,-6.822,-6.817
0.232,0.874,0.249,0.726,0.052,0.561,0.920,0.828,-0.058,-0.567,0.405,0.395,1.011,0.288,-0.081,0.001
3.287,3.042,2.518,2.866,3.155,3.735,3.058,3.023,2.185,1.566,3.643,3.480,4.300,3.602,2.900,2.637
2.745,2.458,2.050,2.196,2.255,2.674,2.242,2.501,1.888,1.358,2.490,2.798,3.788,2.926,2.308,2.312
-0.189,-0.121,0.114,-0.041,-0.062,-0.179,-0.575,0.282,-0.085,-0.840,0.229,0.011,1.031,-0.110,-0.214,-0.390
-3.131,-2.405,-2.050,-2.176,-3.017,-2.611,-2.405,-1.596,-2.116,-2.813,-2.683,-2.930,-2.130,-3.398,-2.969,-3.022
-3.736,-2.880,-3.038,-2.484,-3.842,-3.663,-2.846,-2.235,-2.934,-3.524,-3.522,-3.310,-2.849,-3.755,-3.351,-3.670
-0.919,-0.359,-0.733,-0.288,-0.664,-0.763,-0.443,-0.055,-0.598,-1.346,-0.379,-0.437,0.190,-0.622,-0.714,-0.850
6.013,5.872,4.664,4.933,6.842,6.546,5.593,5.617,4.922,4.066,6.722,6.386,8.038,7.065,6.148,6.276
17.195,15.025,13.055,13.917,18.428,18.017,14.520,13.858,13.081,12.061,17.236,16.617,19.391,18.594,16.312,16.672
30.213,26.096,22.856,23.980,31.056,31.688,24.839,23.948,22.208,21.279,29.978,29.558,32.502,32.595,28.156,29.303
42.941,36.946,32.314,33.632,43.748,44.754,34.640,33.815,31.319,30.311,42.477,41.286,46.285,45.690,40.031,41.337
52.838,45.172,39.609,41.214,53.703,54.835,42.772,41.411,38.279,37.529,51.566,50.516,56.182,55.858,49.477,50.748
57.544,49.139,43.228,44.622,58.681,59.473,46.014,45.022,41.414,41.035,56.271,55.037,61.297,61.306,53.933,55.062
55.753,47.974,42.057,43.311,56.900,57.688,44.939,43.856,40.385,39.568,54.574,53.406,59.417,59.246,52.338,53.518
47.853,41.298,35.729,37.344,48.849,49.844,38.431,37.647,34.574,34.153,46.998,45.869,51.011,50.751,44.722,46.116
34.841,30.078,25.708,27.144,34.961,36.168,27.901,27.641,24.975,24.499,34.258,33.385,36.937,37.069,32.503,33.310
18.802,16.175,13.470,14.722,18.474,18.964,14.823,15.097,13.231,12.737,18.181,18.577,19.969,19.709,17.627,17.783
2.426,2.457,1.236,1.907,1.948,2.088,1.740,2.345,1.278,1.034,2.116,2.952,2.596,2.321,2.089,2.114
-11.736,-9.668,-9.337,-9.151,-11.896,-12.540,-9.580,-8.563,-8.806,-9.275,-11.168,-10.741,-12.201,-12.749,-11.160,-11.086
-21.675,-18.183,-16.965,-16.903,-21.822,-22.626,-17.450,-16.169,-15.846,-16.645,-21.222,-20.222,-22.107,-23.469,-20.428,-20.674
-26.229,-22.055,-20.447,-20.547,-26.751,-27.351,-21.411,-20.091,-19.406,-19.940,-25.888,-24.742,-27.483,-28.496,-24.533,-25.165
-26.483,-22.224,-20.657,-20.399,-26.582,-27.423,-21.554,-20.003,-19.456,-19.777,-25.933,-24.969,-27.520,-28.335,-24.527,-25.388
-23.231,-18.909,-17.943,-18.094,-23.186,-24.101,-18.781,-17.597,-16.868,-17.577,-22.876,-21.844,-24.112,-24.692,-21.853,-22.202
-18.583,-14.851,-14.490,-14.598,-18.088,-19.295,-15.398,-13.682,-13.606,-14.168,-18.211,-17.362,-19.265,-19.878,-17.223,-17.736
-14.879,-11.819,-11.889,-11.704,-14.438,-15.314,-11.999,-11.104,-10.862,-11.724,-14.616,-13.868,-15.318,-15.924,-13.666,-13.972
-14.083,-11.050,-10.872,-10.745,-13.811,-14.200,-11.326,-10.112,-10.326,-10.696,-13.668,-13.203,-14.452,-14.767,-13.022,-13.069
-16.595,-13.649,-12.838,-12.986,-16.329,-17.130,-13.399,-12.177,-12.351,-12.817,-16.319,-15.393,-17.005,-17.784,-15.258,-15.454
-22.721,-18.991,-17.473,-17.777,-22.559,-23.325,-18.560,-17.165,-16.635,-17.053,-22.060,-21.322,-23.316,-24.104,-20.959,-21.720
-31.050,-25.811,-23.902,-24.109,-30.960,-32.371,-24.796,-23.812,-22.370,-22.837,-29.886,-29.258,-32.538,-32.979,-29.102,-29.815
-39.107,-32.920,-30.594,-30.473,-38.960,-40.551,-31.375,-29.922,-28.489,-29.142,-37.909,-36.940,-41.099,-41.899,-37.063,-37.509
-45.070,-38.223,-35.164,-35.356,-45.450,-46.404,-35.949,-34.864,-32.945,-33.307,-43.579,-42.344,-47.280,-48.365,-42.461,-43.320
-46.567,-39.345,-36.122,-36.261,-46.794,-48.435,-37.206,-35.809,-33.890,-34.704,-45.459,-43.776,-48.677,-49.984,-43.854,-45.251
-42.518,-35.745,-33.111,-33.183,-42.585,-43.886,-33.912,-32.517,-30.724,-31.693,-41.549,-39.815,-44.187,-45.470,-40.201,-41.354
-32.474,-27.422,-25.137,-25.126,-32.398,-33.500,-25.635,-24.576,-23.663,-24.256,-31.500,-30.488,-33.156,-35.012,-30.706,-31.609
-17.674,-14.921,-14.102,-13.835,-17.292,-18.020,-13.709,-12.912,-12.812,-13.552,-17.205,-16.212,-17.896,-19.059,-16.580,-17.179
27.148,23.152,19.798,20.795,27.199,28.012,22.044,21.262,19.115,18.651,26.268,26.475,28.713,27.872,25.270,25.686
44.478,37.964,33.168,34.606,45.043,46.393,36.362,34.792,31.596,31.476,43.385,42.978,47.634,46.664,41.619,42.434
32.361,27.662,23.706,25.356,32.671,34.075,26.588,25.171,22.863,22.799,31.354,31.035,35.001,34.294,30.569,30.671
42.363,36.069,31.946,33.173,42.918,44.317,34.082,33.107,30.437,29.834,41.114,40.686,45.659,44.724,39.549,40.450
46.754,39.632,35.030,36.372,47.243,48.351,37.627,36.148,33.642,32.958,45.364,44.691,49.871,49.243,44.225,44.749
45.133,38.457,33.816,35.389,45.534,46.789,36.159,34.853,32.440,31.899,43.962,43.352,48.176,47.518,42.997,42.977
39.142,33.560,29.535,30.708,39.031,40.415,30.941,30.353,28.025,27.606,37.950,37.610,41.539,41.234,36.961,37.251
30.946,26.506,22.982,23.836,30.791,31.588,24.518,23.804,21.796,21.599,29.723,29.354,32.987,32.735,29.463,28.937
22.411,19.332,16.487,17.437,22.710,23.031,18.008,17.320,16.130,15.644,21.700,21.538,24.337,24.138,21.071,21.032
16.231,14.388,12.141,12.811,16.609,16.736,13.258,12.483,11.505,11.091,16.098,15.853,17.766,17.379,15.447,15.463
13.445,11.861,10.260,10.593,13.599,14.069,11.116,10.718,9.726,9.147,13.581,13.088,15.127,14.349,13.121,12.880
14.866,12.772,10.598,12.006,14.754,14.972,11.840,11.290,10.595,10.200,14.358,14.048,16.153,15.321,13.925,13.657
18.425,16.014,13.841,14.673,18.674,19.054,15.145,14.072,13.064,12.864,17.897,17.594,19.990,19.414,17.613,17.594
23.292,20.207,17.261,18.172,23.170,24.008,18.855,17.704,16.305,16.207,22.480,21.920,24.795,24.413,21.537,21.890
26.254,23.098,19.606,20.799,26.918,27.713,21.290,20.175,18.950,18.624,25.798,25.292,28.113,27.770,24.711,25.180
26.489,22.807,19.589,20.454,26.972,27.600,21.235,20.253,18.837,18.546,25.822,25.626,28.274,27.980,24.850,25.045
21.579,18.547,16.095,16.884,21.977,22.453,17.632,16.563,15.275,15.014,20.766,21.264,23.302,23.051,20.953,20.235
11.940,9.974,8.581,8.965,12.206,12.047,9.277,8.793,8.135,7.900,11.254,11.458,12.687,12.804,11.646,10.896
-2.214,-2.526,-1.948,-2.187,-1.784,-2.649,-2.205,-2.168,-2.126,-2.159,-2.406,-2.088,-2.333,-2.381,-1.964,-2.411
-19.112,-16.181,-14.627,-15.004,-18.797,-19.465,-15.160,-14.866,-13.797,-14.368,-18.066,-17.725,-19.758,-20.132,-17.850,-18.472
-35.031,-30.308,-27.098,-27.238,-35.344,-36.327,-28.309,-27.140,-25.623,-26.047,-33.551,-33.080,-36.715,-37.065,-32.764,-34.066
-48.101,-41.423,-36.918,-37.557,-48.105,-50.008,-38.657,-37.299,-35.064,-35.220,-46.393,-45.384,-50.322,-51.255,-45.111,-46.320
-56.335,-48.159,-42.950,-43.538,-56.272,-58.551,-44.965,-43.627,-40.950,-41.276,-53.927,-52.723,-58.912,-59.824,-52.495,-54.182
-57.971,-49.229,-44.169,-44.887,-58.077,-60.303,-46.698,-44.659,-41.921,-42.413,-55.681,-54.468,-60.708,-61.477,-54.027,-55.595
-53.276,-44.925,-40.418,-41.504,-53.268,-55.616,-42.890,-41.080,-38.291,-39.043,-51.574,-49.785,-55.597,-56.432,-49.739,-51.650
-43.540,-36.966,-32.955,-34.034,-43.670,-45.048,-34.923,-33.433,-31.467,-32.097,-41.966,-40.533,-45.313,-45.965,-40.740,-42.108
-0.512,-0.277,-0.167,-0.487,-0.289,-0.179,-0.433,-0.143,-0.071,-0.609,0.299,0.033,0.529,0.192,-0.203,-0.585
-0.451,0.299,-0.238,-0.535,-0.100,-0.089,-0.219,-0.132,0.058,-0.610,-0.169,0.141,0.342,-0.213,-0.038,-0.325
-0.691,-0.160,-0.417,-0.420,-0.139,-0.378,-0.175,-0.486,-0.095,-0.532,0.068,0.097,0.153,-0.142,-0.055,-0.401
-0.495,-0.072,-0.113,-0.212,0.135,-0.296,-0.224,-0.225,-0.061,-0.509,0.271,0.051,0.376,-0.071,0.078,-0.456
-0.456,0.097,-0.176,-0.344,0.208,-0.459,-0.402,-0.079,0.098,-0.424,0.277,0.200,0.390,-0.060,0.370,-0.644
0.011,0.210,-0.202,-0.216,0.150,-0.277,-0.439,-0.185,-0.419,-0.165,0.191,-0.029,0.400,0.174,0.257,-0.395
-0.257,0.061,-0.113,-0.181,0.052,-0.298,-0.147,0.263,-0.430,-0.181,0.020,0.202,0.277,0.155,0.339,-0.317
-0.163,-0.007,-0.082,-0.330,-0.081,-0.235,-0.127,0.115,-0.438,-0.436,0.075,0.055,0.263,-0.149,0.104,-0.370
-0.032,-0.177,0.156,-0.224,-0.020,-0.236,-0.268,-0.023,-0.509,-0.519,0.290,-0.266,0.394,0.147,-0.064,-0.200
-0.284,-0.052,0.084,-0.155,0.110,-0.342,-0.221,0.341,-0.430,-0.633,0.236,0.036,0.165,0.369,-0.055,-0.478
-0.369,0.332,-0.185,-0.103,-0.188,-0.255,-0.219,-0.017,-0.301,-0.432,0.065,-0.401,0.188,0.456,-0.108,-0.354
-0.456,0.475,-0.419,-0.143,0.067,-0.231,-0.388,0.171,-0.489,-0.587,-0.053,0.014,0.390,-0.000,0.157,-0.284
-0.065,0.049,-0.377,-0.202,0.278,0.149,-0.266,-0.434,-0.372,-0.291,-0.100,0.017,0.237,-0.172,0.086,-0.467
-0.170,-0.150,-0.527,-0.269,-0.138,-0.170,0.073,-0.135,-0.625,-0.355,0.358,-0.267,0.281,-0.129,-0.267,-0.145
-0.373,0.222,-0.607,-0.100,-0.056,-0.379,0.054,0.019,-0.467,-0.398,-0.036,-0.340,0.079,0.015,0.115,0.070
0.088,0.188,-0.658,0.218,0.021,-0.420,0.361,-0.304,-0.276,-0.891,-0.098,-0.283,0.361,0.290,-0.012,0.175
0.282,0.013,-0.752,0.288,-0.150,-0.488,-0.265,-0.458,-0.083,-0.748,0.088,-0.461,0.269,0.356,0.141,0.167
0.107,-0.049,-0.539,0.032,-0.404,-0.242,-0.290,-0.331,-0.186,-0.643,0.261,-0.147,0.373,0.202,0.282,0.147
-0.275,0.521,-0.182,-0.126,-0.534,-0.365,-0.478,0.015,-0.331,-0.377,0.351,-0.254,0.473,-0.087,0.037,0.370
-0.082,0.261,-0.437,-0.306,-0.512,-0.180,-0.632,-0.222,-0.443,-0.298,0.203,0.217,0.388,0.062,-0.092,0.032
-0.182,0.236,-0.157,0.052,-0.164,-0.411,-0.293,-0.312,-0.331,-0.341,0.238,0.003,0.287,0.357,-0.003,0.249
-0.007,-0.396,0.020,-0.067,-0.369,-0.149,-0.364,-0.301,-0.120,-0.272,-0.245,-0.190,0.281,0.222,-0.092,0.074
-0.020,-0.013,-0.157,-0.213,-0.328,0.023,-0.484,0.209,-0.280,-0.234,-0.593,0.019,0.476,-0.270,0.015,0.140
-0.023,0.164,0.164,-0.233,-0.056,-0.303,-0.451,-0.083,-0.085,-0.486,-0.441,0.242,0.285,-0.262,0.524,0.153
0.185,-0.116,-0.111,-0.018,-0.222,-0.230,-0.153,-0.334,-0.362,-0.239,-0.412,0.368,0.506,-0.446,0.589,0.374
0.236,0.219,-0.193,-0.059,-0.274,0.037,0.131,-0.109,-0.076,-0.088,-0.277,0.625,0.598,-0.197,0.447,0.306
0.387,0.341,-0.189,-0.260,-0.083,-0.222,0.054,0.271,-0.159,-0.331,0.137,0.262,0.194,-0.046,0.514,0.875
0.661,0.243,-0.079,-0.191,-0.157,-0.122,0.187,0.241,-0.231,-0.036,0.230,0.093,0.635,0.040,0.219,0.582
-0.143,0.102,-0.463,-0.108,-0.465,-0.330,-0.086,-0.015,-0.338,-0.470,0.125,0.312,0.296,0.042,0.217,0.124
-0.389,0.009,-0.362,-0.033,-0.057,-0.391,-0.118,-0.219,-0.472,-0.129,-0.341,0.310,0.110,0.044,0.592,-0.015
-0.143,-0.106,-0.472,-0.256,-0.205,-0.490,0.155,-0.118,-0.343,-0.135,-0.347,0.496,0.116,0.003,0.404,-0.308
-0.384,0.176,-0.368,-0.196,0.303,-0.339,0.064,-0.154,-0.413,-0.224,-0.221,0.464,0.411,-0.043,0.274,-0.142
-0.165,0.395,-0.552,-0.385,0.457,-0.413,0.330,-0.014,-0.353,0.031,-0.169,0.095,0.419,-0.054,0.343,-0.312
0.062,0.072,-0.370,-0.219,0.113,-0.345,-0.035,-0.220,-0.228,-0.347,-0.191,0.192,0.377,0.059,0.318,-0.317
-0.087,0.361,0.087,-0.032,0.259,-0.314,0.014,-0.249,-0.140,-0.512,-0.247,0.423,0.563,-0.081,0.528,-0.015
-0.279,0.114,0.052,-0.220,-0.215,-0.340,0.045,-0.128,-0.164,-0.732,0.259,0.410,0.542,-0.403,0.359,-0.084
0.078,0.149,-0.131,-0.024,-0.104,-0.709,0.026,-0.220,-0.331,-0.542,-0.236,0.357,0.367,-0.296,0.207,-0.318
-0.230,-0.081,-0.207,-0.054,-0.262,-0.271,0.308,0.240,-0.355,-0.248,-0.019,0.244,0.337,-0.134,0.148,-0.248
-0.261,0.009,-0.372,0.055,-0.233,-0.411,0.179,0.289,-0.295,-0.283,-0.098,0.137,0.675,-0.029,0.212,-0.236
-0.122,0.032,-0.425,0.066,-0.233,-0.152,0.145,-0.173,-0.485,-0.397,-0.261,0.185,0.605,0.136,0.025,-0.305
0.096,0.043,-0.634,0.022,-0.360,-0.574,-0.065,-0.016,-0.300,-0.590,0.062,0.168,0.526,-0.142,0.241,-0.488
0.019,0.183,-0.360,0.179,0.103,-0.324,-0.105,-0.365,-0.428,-0.495,0.545,0.195,0.001,-0.080,-0.087,-0.123
0.232,0.093,-0.351,0.140,-0.366,-0.032,-0.092,-0.308,-0.309,-0.627,0.534,0.132,0.135,0.108,-0.041,-0.103
0.148,-0.155,-0.449,0.006,0.303,0.019,-0.122,-0.323,-0.215,-0.620,0.431,0.315,-0.114,-0.159,0.036,0.031
0.189,-0.213,-0.480,0.028,0.014,-0.436,0.210,0.037,-0.104,-0.701,0.278,0.263,-0.082,0.377,-0.029,-0.210
-0.147,-0.131,-0.472,0.130,-0.045,-0.516,0.310,0.118,-0.179,-0.535,0.334,0.421,-0.108,-0.059,-0.153,-0.209
0.050,-0.107,-0.183,0.229,-0.104,-0.378,0.361,0.032,-0.153,-0.612,-0.113,0.134,0.162,0.014,-0.052,-0.492
-0.176,0.218,-0.422,0.406,0.009,-0.262,0.220,0.210,-0.015,-0.294,0.172,0.282,0.521,-0.131,-0.033,-0.235
-0.120,-0.171,-0.379,-0.104,-0.098,0.031,0.399,-0.030,-0.202,-0.509,0.139,0.191,0.196,0.249,-0.249,-0.318
-0.119,-0.216,-0.404,-0.165,-0.271,-0.251,0.087,0.287,-0.396,-0.987,0.260,0.165,0.103,0.308,-0.156,-0.178
-0.050,-0.120,-0.370,-0.092,-0.246,-0.221,0.064,0.441,-0.187,-0.614,0.492,-0.146,0.218,-0.049,-0.030,-0.123
0.157,0.386,0.024,0.186,-0.239,-0.233,0.039,0.173,-0.265,-0.496,0.584,-0.018,0.362,-0.272,-0.080,-0.187
0.488,0.250,0.110,-0.165,-0.415,-0.341,-0.042,-0.101,-0.468,-0.362,-0.129,-0.334,-0.044,-0.168,-0.063,-0.100
0.393,0.104,0.021,0.180,-0.290,-0.082,-0.056,-0.686,-0.399,-0.360,-0.080,-0.106,-0.322,-0.234,-0.129,-0.106
-0.193,-0.110,-0.018,-0.195,0.094,0.123,-0.202,-0.184,-0.355,-0.322,0.057,0.014,-0.066,-0.070,0.138,-0.425
-0.326,-0.099,-0.235,-0.205,-0.039,-0.116,-0.110,-0.120,-0.084,-0.285,-0.423,-0.571,0.119,-0.158,0.067,-0.642
0.176,0.110,0.023,-0.153,0.171,-0.285,-0.040,-0.145,-0.242,-0.453,-0.417,-0.612,0.353,-0.438,-0.244,-0.344
0.165,0.052,-0.021,-0.419,0.174,-0.321,-0.216,-0.067,-0.328,-0.779,-0.506,-0.367,0.314,-0.478,0.136,-0.321
-0.134,-0.229,-0.108,-0.503,-0.148,-0.310,0.021,-0.167,-0.567,-0.668,-0.602,-0.077,0.534,-0.507,0.161,-0.560
0.055,-0.048,-0.009,-0.077,0.238,-0.186,-0.005,0.112,-0.777,-0.430,-0.285,-0.254,0.301,-0.168,-0.275,-0.579
-0.072,-0.110,-0.218,0.018,-0.026,-0.221,-0.033,0.458,-0.620,-0.506,-0.233,0.301,-0.151,-0.182,0.075,-0.112
-0.006,0.047,-0.061,0.218,-0.101,-0.406,0.134,0.246,-0.628,-0.488,-0.459,0.403,0.110,-0.256,-0.048,-0.017
0.063,0.055,0.065,0.144,0.094,-0.171,0.201,0.334,-0.650,-0.481,-0.489,0.313,0.066,0.008,-0.221,-0.365
0.147,-0.104,0.004,0.039,-0.158,-0.291,-0.115,0.162,-0.331,-0.596,-0.432,0.246,0.315,-0.280,-0.228,-0.606
0.550,-0.366,0.439,0.198,-0.103,-0.169,0.081,0.407,-0.198,-0.279,-0.606,0.108,0.026,-0.217,-0.158,-0.308
0.507,-0.512,0.247,-0.252,0.058,-0.360,-0.499,0.583,-0.318,-0.597,-0.946,0.422,0.297,-0.114,-0.573,-0.244
0.405,-0.479,-0.057,-0.187,0.052,-0.466,-0.141,0.540,-0.368,-0.551,-0.529,0.272,0.391,-0.030,-0.074,-0.360
0.734,-0.289,-0.214,-0.032,-0.114,-0.573,0.331,0.307,-0.505,-0.228,-0.336,0.313,0.662,-0.106,0.335,-0.070
0.441,-0.379,-0.208,0.138,-0.380,0.035,0.560,0.077,-0.549,-0.113,-0.197,0.317,0.342,0.081,0.050,-0.494
0.440,-0.037,-0.031,0.473,-0.252,-0.200,0.654,-0.285,-0.749,-0.015,-0.168,0.134,0.496,0.214,-0.044,-0.243
0.056,0.014,-0.147,0.441,-0.032,-0.386,0.527,0.019,-0.406,-0.066,-0.012,0.146,0.312,0.041,0.332,0.164
0.003,0.329,-0.397,0.589,-0.081,-0.484,0.121,0.059,-0.324,-0.154,0.101,0.195,0.484,-0.015,0.122,0.064
-0.174,0.277,-0.836,0.372,0.401,-0.517,0.261,-0.088,-0.495,-0.317,0.156,0.102,0.362,0.074,0.102,0.157
0.164,0.121,-0.172,0.232,0.420,-0.335,0.225,0.092,-0.811,-0.584,0.145,-0.195,0.737,-0.181,-0.382,0.012
-0.017,0.282,-0.202,0.295,0.038,0.016,0.270,-0.200,-0.641,-0.501,-0.051,-0.115,0.649,-0.195,-0.428,-0.217
-0.063,0.052,-0.348,0.342,-0.128,-0.081,0.171,-0.388,-0.159,-0.275,-0.246,-0.093,0.130,0.082,-0.320,-0.365
-0.124,-0.024,-0.223,0.336,0.197,-0.050,-0.025,-0.242,-0.411,0.101,-0.365,-0.021,0.232,0.074,-0.466,-0.461
0.265,-0.051,-0.071,0.355,0.445,-0.260,-0.049,-0.524,-0.247,-0.332,-0.288,0.047,0.170,0.547,-0.487,-0.034
0.037,-0.177,-0.463,0.324,0.572,-0.072,0.045,-0.494,-0.278,-0.343,0.139,0.009,0.218,-0.038,-0.199,-0.359
-0.002,-0.176,-0.415,0.138,0.700,-0.040,0.034,-0.334,-0.311,0.050,-0.175,0.350,0.437,0.165,-0.231,-0.383
0.036,-0.634,-0.160,0.300,0.120,0.160,-0.008,-0.595,0.036,0.256,-0.033,-0.203,0.344,0.389,-0.267,-0.131
0.259,-0.547,-0.205,0.265,0.590,-0.180,0.053,-0.340,-0.126,0.058,0.296,-0.230,0.110,0.144,-0.307,-0.251
0.033,-0.349,-0.290,0.545,0.447,-0.419,-0.106,-0.430,-0.149,0.115,0.066,-0.110,-0.050,-0.078,-0.624,-0.269
0.269,-0.598,-0.133,0.348,0.166,0.117,-0.193,-0.726,-0.324,0.006,0.394,-0.068,-0.411,-0.092,-0.662,-0.437
0.007,-0.631,-0.368,0.255,0.070,-0.393,-0.087,-0.784,-0.034,-0.246,0.335,-0.223,-0.566,-0.117,-0.817,-0.503
0.193,-0.522,-0.355,0.262,0.307,-0.102,-0.283,-0.225,-0.011,0.028,0.032,0.135,-0.389,0.066,-0.086,-0.725
0.018,-0.375,-0.350,0.137,0.183,0.354,-0.184,-0.386,-0.177,-0.165,0.171,0.327,-0.666,0.183,-0.560,-0.596
-0.060,-0.384,-0.213,0.293,0.529,0.134,-0.072,-0.422,0.019,-0.042,-0.220,0.397,-0.281,0.185,-0.465,-0.457
0.092,-0.412,-0.286,0.148,0.227,0.230,-0.176,-0.312,-0.173,-0.067,-0.276,0.154,-0.322,-0.058,-0.075,-0.469
0.151,-0.393,-0.011,0.518,0.406,0.171,-0.113,-0.394,-0.236,-0.074,-0.068,0.224,-0.363,-0.309,0.046,-0.402
0.081,-0.324,-0.167,0.254,0.321,0.088,-0.199,-0.318,-0.038,-0.025,-0.402,0.169,-0.330,0.006,0.028,-0.186
0.131,-0.502,-0.048,0.204,0.241,0.429,0.127,-0.465,-0.123,0.074,-0.184,0.316,-0.214,0.060,-0.291,-0.144
0.204,-0.520,0.100,0.400,0.258,0.071,0.254,-0.196,-0.065,0.044,-0.046,0.191,-0.310,0.040,-0.476,-0.401
-0.269,-0.159,-0.325,0.387,-0.048,-0.100,0.035,0.041,0.003,-0.028,0.025,0.239,-0.506,0.485,-0.118,-0.508
-0.380,-0.028,-0.258,0.460,0.366,-0.253,0.162,-0.040,-0.241,-0.095,-0.083,0.097,-0.414,0.201,-0.481,-0.385
-0.173,-0.286,0.116,0.258,0.335,0.183,0.113,-0.020,-0.209,-0.114,-0.348,0.242,0.153,0.139,-0.630,-0.139
-0.228,-0.284,-0.050,0.008,0.289,0.306,0.149,0.015,-0.397,-0.390,-0.145,0.393,0.046,0.340,-0.439,-0.188
-0.497,-0.269,0.042,0.007,0.361,0.309,0.001,-0.218,-0.345,-0.333,-0.113,0.201,0.222,0.422,-0.291,-0.017
-0.482,-0.630,-0.049,-0.019,0.475,0.547,-0.050,-0.252,-0.527,-0.338,-0.300,-0.048,0.220,0.256,0.102,-0.274
-0.493,-0.646,-0.030,0.283,0.339,0.182,0.196,-0.494,-0.327,-0.414,-0.181,-0.474,0.215,0.389,-0.210,-0.169
-0.215,-0.473,-0.121,0.243,0.100,-0.055,0.147,-0.536,-0.512,-0.408,-0.284,0.230,0.485,0.163,0.196,-0.309
-0.243,-0.876,-0.124,0.304,0.297,-0.107,0.456,-0.395,-0.287,-0.234,-0.148,0.363,0.201,0.204,0.145,-0.511
0.048,-0.619,0.135,0.167,0.290,0.063,0.255,-0.099,-0.305,-0.388,-0.394,0.446,0.081,0.176,-0.375,-0.407
-0.303,-0.222,-0.026,0.236,0.204,0.288,-0.090,-0.070,-0.223,-0.153,-0.136,0.571,-0.086,0.154,0.036,-0.001
0.044,-0.514,0.004,0.328,0.317,0.251,-0.169,-0.241,-0.487,-0.382,-0.165,0.443,0.095,0.263,-0.304,-0.318
-0.029,-0.271,0.130,0.222,0.090,0.149,-0.103,0.014,-0.436,-0.233,-0.279,0.531,0.237,0.189,-0.220,-0.207
0.196,-0.456,-0.017,0.362,0.624,0.211,0.211,0.106,0.058,-0.193,-0.113,0.375,-0.053,0.457,-0.455,-0.577
0.096,-0.307,-0.369,0.198,0.602,0.349,-0.221,-0.355,-0.218,-0.318,0.029,0.545,0.102,0.573,-0.048,-0.242
-0.296,-0.149,-0.097,0.243,0.951,0.578,-0.127,0.504,-0.242,-0.275,0.128,0.487,-0.013,0.373,0.288,-0.357
-0.041,-0.503,-0.253,0.187,0.988,0.480,-0.232,0.252,-0.407,-0.171,0.284,0.622,0.146,0.473,-0.053,-0.531
-0.053,-0.471,-0.224,0.337,0.669,0.747,-0.256,0.128,-0.325,-0.429,0.400,0.560,0.206,0.387,-0.365,-0.465
-0.057,-0.196,-0.127,0.201,0.539,0.628,-0.034,-0.258,-0.500,-0.518,0.395,0.195,-0.026,0.785,-0.667,-0.419
0.401,-0.360,-0.133,0.005,0.290,0.464,0.276,-0.227,-0.534,-0.537,0.244,0.366,0.020,0.582,-0.876,-0.159
0.186,-0.415,-0.182,-0.270,0.103,0.396,0.266,-0.386,-0.636,-0.430,0.540,0.456,0.426,0.858,-0.500,-0.237
0.118,-0.230,-0.287,-0.145,0.364,0.634,0.162,-0.200,-0.413,-0.469,0.615,0.509,0.149,0.664,-0.490,-0.298
-0.183,-0.024,-0.280,0.133,0.384,0.529,0.155,0.104,-0.214,-0.526,0.497,0.148,0.341,0.528,-0.374,-0.422
0.055,-0.026,0.091,0.282,0.512,0.273,-0.155,0.085,-0.487,-0.268,0.125,0.478,0.055,0.306,-0.378,-0.521
-0.137,-0.172,-0.091,0.085,0.317,0.423,0.241,0.089,-0.480,-0.002,0.132,0.517,-0.052,0.560,-0.660,-0.501
-0.091,0.047,-0.291,0.008,0.610,0.330,0.384,0.241,-0.279,-0.060,0.199,0.842,0.055,0.343,-0.655,-0.467
0.046,0.144,-0.319,-0.123,0.526,0.567,0.438,0.109,-0.302,-0.103,0.435,0.497,0.507,0.373,-0.325,-0.537
-0.078,0.175,-0.281,0.088,0.408,0.337,0.222,0.077,0.006,-0.470,0.673,0.187,0.369,0.758,-0.501,-0.410
0.119,0.241,-0.457,0.354,0.175,0.050,-0.033,-0.122,0.097,-0.530,0.849,-0.152,0.588,0.612,-0.861,-0.136
0.317,-0.036,-0.512,0.236,0.013,-0.148,-0.018,0.367,-0.141,-0.659,0.576,0.373,0.161,0.287,-0.801,-0.117
-0.148,0.016,-0.373,0.226,0.328,-0.108,-0.031,0.239,-0.331,-0.371,0.394,0.039,-0.156,0.221,-0.766,-0.069
-0.086,-0.366,-0.350,0.256,0.361,0.014,0.520,-0.184,-0.074,-0.394,0.551,0.160,0.132,0.556,-0.733,-0.133
-0.020,-0.674,-0.511,0.161,0.058,-0.131,0.198,-0.021,-0.101,-0.548,0.536,0.430,-0.085,0.339,-0.969,-0.284
-0.179,-0.103,-0.671,0.085,0.195,-0.158,0.083,0.120,-0.511,-0.573,0.621,0.430,-0.110,0.501,-0.492,-0.413
-0.285,0.156,-0.391,0.131,0.240,-0.500,0.239,-0.090,-0.220,-0.532,0.584,0.247,0.079,0.388,-0.053,-0.092
-0.109,-0.235,-0.955,0.192,0.264,-0.205,0.390,-0.114,-0.100,-0.459,0.709,0.423,0.035,0.558,-0.481,0.307
0.300,-0.298,-0.981,0.122,0.423,-0.091,0.267,-0.079,-0.304,-0.401,0.443,0.264,0.116,0.714,-0.520,0.431
0.222,-0.453,-0.980,-0.154,0.177,0.122,0.249,0.181,-0.101,-0.542,0.340,0.097,0.289,1.164,-0.457,0.181
0.288,-0.669,-0.505,-0.007,0.204,-0.178,0.240,-0.054,-0.222,-0.237,0.530,-0.043,-0.137,0.598,-0.772,0.181
0.073,-0.781,-0.387,0.176,0.099,-0.107,0.240,-0.212,-0.231,-0.469,0.418,-0.175,-0.021,0.529,-0.726,-0.035
0.004,-0.387,-0.470,0.252,0.088,-0.235,0.709,-0.356,-0.231,-0.256,0.252,-0.036,0.072,0.655,-0.637,0.051
0.072,-0.355,-0.464,-0.052,0.753,-0.299,0.036,-0.594,-0.243,-0.255,0.403,-0.151,0.520,0.518,-0.455,0.373
0.176,-0.730,-0.503,0.056,0.871,-0.386,0.306,-0.368,-0.062,-0.552,0.566,-0.008,0.250,0.642,-0.321,0.251
0.033,-0.604,-0.140,0.069,0.368,-0.238,0.581,-0.354,-0.408,-0.508,0.608,0.254,0.032,0.623,-0.335,0.108
-0.142,-0.403,-0.389,0.069,0.003,0.087,0.584,-0.198,-0.468,-0.658,0.233,0.226,0.452,0.477,-0.697,-0.106
-0.202,-0.623,-0.580,0.189,0.475,0.046,0.271,-0.120,-0.125,-0.094,0.160,-0.057,0.124,0.947,-0.194,-0.049
0.191,-0.308,-0.741,0.510,0.396,0.119,0.337,-0.075,-0.106,-0.030,0.288,0.270,0.497,0.628,0.127,0.159
0.374,-0.149,-0.481,0.234,0.543,0.088,0.387,0.165,-0.112,-0.135,0.188,0.412,0.348,0.751,0.067,-0.136
0.205,-0.055,-0.488,0.572,0.710,0.079,0.545,0.189,-0.247,-0.340,0.403,0.904,0.325,0.772,-0.141,-0.199
0.146,-0.167,-0.182,0.178,0.345,0.097,0.115,-0.174,-0.190,-0.256,0.375,0.568,0.422,1.066,-0.201,-0.313
0.272,-0.023,-0.297,0.160,0.676,0.108,0.024,0.036,0.002,-0.453,0.644,0.408,0.280,0.709,-0.399,-0.422
-0.016,-0.154,-0.878,0.014,0.481,0.218,-0.025,0.029,0.035,-0.434,0.463,0.381,0.554,0.826,-0.112,-0.475
-0.316,-0.365,-0.484,0.162,0.639,-0.127,-0.224,0.245,-0.103,-0.349,0.424,0.563,0.117,0.540,0.136,-0.332
0.127,-0.247,-0.487,0.194,0.355,-0.528,0.212,0.226,-0.144,-0.315,0.417,0.797,0.140,0.589,0.186,0.179
0.053,-0.298,-0.402,0.031,0.355,-0.522,0.386,0.658,0.004,-0.381,0.218,0.759,0.399,0.828,0.244,0.032
0.003,-0.323,-0.513,-0.055,0.696,-0.143,0.351,0.541,0.283,-0.409,0.622,0.728,0.150,0.837,0.052,0.157
0.237,-0.295,-0.589,0.127,0.381,0.030,0.336,0.327,0.198,0.013,0.663,0.573,0.314,0.251,-0.002,-0.102
0.418,-0.256,-0.537,-0.078,0.221,-0.345,-0.083,0.376,0.075,-0.057,0.561,0.373,0.030,0.423,-0.321,0.015
0.603,-0.163,-0.386,0.182,0.341,-0.418,-0.025,0.208,0.007,-0.242,0.374,0.711,0.121,0.415,-0.051,-0.583
0.664,-0.018,-0.313,0.107,0.417,-0.212,0.088,0.456,-0.034,0.294,0.173,0.581,-0.193,0.153,-0.205,-0.387
0.357,-0.417,-0.162,0.167,0.509,-0.013,0.155,0.543,0.136,-0.029,0.102,0.440,-0.402,0.260,-0.127,-0.511
-0.014,-0.036,-0.267,0.376,0.197,0.028,0.410,0.407,-0.047,-0.133,0.466,0.381,-0.167,0.542,-0.091,-0.456
0.371,-0.328,-0.309,0.165,0.006,-0.542,0.629,0.540,-0.001,0.042,0.418,0.192,-0.026,0.486,-0.385,-0.529
-0.123,-0.505,-0.594,0.520,0.224,-0.233,0.494,0.013,-0.155,-0.085,0.169,0.036,-0.546,0.522,-0.134,-0.235
0.093,-0.334,-0.175,0.335,0.242,-0.079,0.416,0.080,-0.265,-0.006,0.189,0.114,-0.271,0.437,-0.015,-0.284
0.114,-0.384,-0.173,0.300,0.573,-0.277,0.204,0.275,-0.139,0.436,-0.138,0.452,0.018,0.569,-0.408,-0.500
0.223,-0.631,-0.267,0.605,0.577,-0.145,0.516,0.360,-0.289,0.340,-0.171,0.413,-0.372,0.544,-0.253,-0.321
0.210,-0.409,-0.188,0.710,0.286,-0.481,0.602,0.152,-0.292,0.322,-0.037,0.332,-0.418,0.331,-0.147,-0.239
-0.153,-0.417,-0.478,0.677,0.362,-0.182,0.392,0.118,0.094,0.355,0.069,0.416,-0.515,0.376,-0.407,-0.609
0.054,-0.419,-0.186,0.568,0.322,-0.048,0.482,0.047,-0.019,-0.007,0.211,0.493,-0.318,0.186,-0.139,-0.230
0.123,-0.366,-0.125,0.591,0.179,-0.139,0.486,-0.114,-0.065,0.044,0.114,0.292,-0.205,0.125,-0.157,-0.405
0.129,-0.376,-0.051,0.611,0.158,-0.443,0.144,-0.162,-0.480,-0.343,0.083,0.187,-0.095,0.347,-0.337,-0.298
0.593,-0.139,-0.194,0.508,0.186,-0.313,0.230,0.151,-0.221,-0.439,-0.387,-0.170,-0.088,0.437,-0.774,-0.009
0.056,-0.562,-0.119,0.298,0.487,-0.134,0.220,0.366,-0.243,-0.067,-0.230,-0.153,0.253,0.448,-0.719,-0.263
0.121,-0.249,-0.325,0.020,0.535,-0.031,-0.122,0.059,-0.230,0.007,-0.242,0.173,0.049,0.559,-0.320,-0.211
0.063,-0.176,-0.508,0.434,0.299,-0.302,-0.065,0.383,-0.118,-0.311,-0.128,-0.049,-0.224,0.193,-0.760,-0.351
0.188,-0.304,-0.434,0.369,-0.137,-0.225,-0.130,0.219,-0.236,-0.215,-0.599,0.259,-0.170,0.246,-0.681,-0.086
-0.053,-0.423,-0.172,0.185,0.192,-0.044,0.349,-0.189,-0.332,-0.040,-0.312,0.301,-0.593,0.081,-0.482,0.016
0.015,-0.439,0.109,0.112,0.018,0.202,0.738,-0.120,-0.215,-0.147,-0.495,0.118,-0.296,0.052,-0.219,-0.332
-0.216,-0.221,0.183,0.188,-0.151,0.223,0.532,-0.181,-0.175,-0.076,-0.955,-0.251,-0.362,0.314,0.073,-0.169
0.039,-0.140,-0.088,0.133,-0.367,0.032,0.390,0.363,-0.212,-0.330,-0.820,-0.184,-0.456,0.293,0.381,-0.119
0.032,0.036,-0.140,0.241,0.379,0.076,0.437,0.280,-0.253,-0.230,-0.256,-0.214,-0.064,0.461,0.320,-0.303
-0.086,-0.074,-0.259,0.180,0.282,-0.116,0.140,0.091,-0.337,-0.295,-0.330,0.151,-0.237,0.590,-0.222,-0.228
-0.227,0.064,-0.036,0.428,0.300,-0.072,0.173,-0.224,-0.211,-0.244,-0.372,-0.106,-0.287,0.612,-0.050,-0.137
-0.151,0.130,0.080,0.397,0.281,0.075,0.176,-0.014,-0.097,-0.150,-0.510,-0.417,-0.206,0.306,0.062,-0.191
0.212,0.162,0.118,0.424,-0.083,0.201,0.087,0.144,-0.040,-0.176,-0.588,-0.320,-0.564,0.021,-0.157,-0.578
0.219,0.033,0.150,0.335,-0.469,0.228,-0.083,-0.153,-0.071,-0.092,-0.282,-0.146,-0.469,0.076,-0.165,-0.561
0.245,0.435,-0.093,0.229,-0.266,0.159,0.157,0.021,-0.061,0.143,-0.642,0.114,-0.387,0.378,0.300,-0.425
0.503,0.594,-0.060,0.058,-0.343,-0.028,0.286,0.003,-0.233,0.039,-0.628,0.458,-0.642,0.174,0.180,-0.164
0.517,0.657,-0.122,0.193,-0.270,0.173,0.427,-0.141,-0.266,0.052,-0.586,0.308,-0.654,0.457,0.442,-0.670
0.002,0.481,-0.152,0.132,-0.140,0.252,0.262,-0.357,-0.074,-0.029,-0.698,0.268,-0.461,0.282,-0.139,-0.491
-0.327,0.620,0.004,0.231,-0.033,0.492,0.258,-0.249,-0.137,-0.205,-0.573,0.579,-0.184,0.340,-0.205,-0.506
-0.117,0.334,0.013,0.414,-0.072,0.544,0.118,0.163,-0.138,-0.171,-0.593,0.580,-0.360,0.324,-0.231,0.158
-0.180,0.008,-0.137,0.535,-0.023,0.275,0.476,0.024,-0.010,0.059,-0.649,0.661,-0.106,0.265,-0.322,-0.301
-0.113,0.251,-0.154,0.086,0.299,0.482,0.523,-0.044,-0.042,0.139,-0.075,0.479,0.336,0.479,-0.126,-0.388
-0.067,-0.269,-0.348,0.467,0.285,0.356,0.387,-0.201,-0.063,0.139,-0.122,0.214,0.171,0.297,-0.100,-0.602
-0.209,-0.029,-0.152,0.508,-0.030,0.114,0.327,-0.139,-0.375,-0.068,-0.344,0.060,0.047,0.161,-0.096,-0.449
0.003,0.138,0.042,0.178,0.173,-0.018,0.288,0.074,-0.314,0.017,-0.371,-0.125,0.180,0.385,-0.167,-0.234
0.141,0.065,-0.164,0.001,0.413,0.241,0.047,-0.460,-0.445,-0.182,-0.476,-0.250,-0.238,0.230,-0.324,-0.475
-0.172,0.183,-0.065,0.175,0.794,-0.050,0.219,-0.376,-0.437,-0.370,-0.405,-0.072,-0.132,0.218,-0.399,-0.346
-0.217,-0.198,-0.345,0.022,0.413,-0.076,0.330,-0.526,-0.264,0.132,-0.189,-0.103,-0.035,0.383,-0.358,-0.338
0.031,-0.260,-0.267,0.271,0.433,-0.189,0.497,-0.177,-0.141,0.160,-0.260,-0.147,0.027,0.206,-0.152,-0.553
-0.169,-0.054,0.090,0.407,0.389,-0.486,0.821,-0.265,-0.299,0.175,-0.562,-0.294,0.187,0.313,0.051,0.156
0.081,-0.198,-0.029,0.526,0.487,-0.178,0.603,-0.364,-0.512,0.201,-0.862,-0.077,0.301,0.262,-0.033,0.148
-0.097,-0.065,-0.234,0.325,0.293,-0.081,0.465,-0.205,-0.404,-0.117,-0.535,0.083,0.234,0.547,-0.032,-0.232
0.002,-0.066,0.065,-0.050,0.215,-0.564,0.399,-0.301,-0.381,-0.064,-0.923,-0.048,0.154,0.113,-0.199,-0.226
-0.370,-0.182,0.116,-0.104,0.259,-0.781,0.314,-0.078,-0.212,-0.191,-0.754,-0.044,0.113,0.059,0.049,-0.406
-0.223,-0.324,0.087,-0.210,0.504,-0.712,0.129,0.035,-0.210,-0.340,-0.169,0.022,-0.181,0.073,-0.095,-0.416
-0.220,-0.193,-0.228,-0.184,0.751,-0.599,0.328,-0.160,-0.481,-0.229,-0.661,-0.249,-0.015,0.270,0.278,-0.075
-0.326,-0.452,0.340,-0.329,0.978,-0.776,0.449,-0.460,-0.501,-0.511,-0.687,-0.092,0.018,0.078,0.169,-0.315
-0.625,-0.011,0.031,-0.632,0.960,-0.698,0.535,-0.423,-0.024,-0.018,-0.322,0.289,-0.228,0.071,0.130,-0.296
-0.497,-0.216,0.275,-0.314,0.737,-0.933,0.619,0.119,0.002,0.145,-0.295,0.241,-0.052,0.182,0.289,-0.819
-0.315,-0.232,-0.003,-0.454,0.818,-0.359,0.544,0.041,0.078,-0.182,-0.320,0.540,0.040,0.415,0.130,-0.817
0.012,0.066,-0.124,-0.359,0.928,-0.235,0.115,-0.053,0.279,-0.010,-0.567,0.345,-0.016,0.223,0.240,-0.692
0.114,0.123,0.410,-0.135,0.796,-0.678,0.275,0.026,0.164,-0.237,-0.573,0.381,-0.462,0.399,0.493,-0.532
0.127,0.258,-0.044,-0.322,0.552,-0.640,0.255,-0.321,0.052,-0.054,-0.408,0.504,-0.068,0.552,0.175,-0.491
-0.003,0.186,-0.084,-0.208,0.550,-0.563,0.250,-0.184,-0.070,-0.531,-0.420,0.237,0.221,0.328,0.626,-0.402
-0.357,-0.237,0.211,-0.283,0.532,-0.264,0.145,-0.039,0.025,-0.582,-0.413,0.138,0.343,0.462,0.489,-0.507
-0.232,0.012,0.143,-0.618,0.505,-0.409,0.278,0.105,-0.026,-0.129,-0.554,0.387,0.081,0.347,0.441,-0.706
-0.209,-0.016,-0.254,-0.414,0.743,-0.439,0.567,-0.040,-0.003,-0.096,-0.523,0.361,-0.155,0.446,0.164,-0.894
-0.188,-0.079,-0.239,-0.262,0.511,-0.314,0.083,-0.371,-0.113,0.194,-0.625,0.285,-0.153,0.301,-0.069,-0.701
-0.300,-0.105,-0.038,-0.176,0.107,-0.552,0.204,-0.021,-0.149,-0.119,-0.659,0.295,0.039,0.305,0.348,-0.868
-0.238,-0.122,-0.282,-0.107,-0.032,-0.685,0.003,0.151,-0.218,0.210,-0.632,0.337,-0.244,0.644,0.283,-0.918
-0.295,0.054,-0.069,0.173,0.463,-0.815,-0.182,0.070,-0.151,0.274,-0.705,0.696,-0.064,0.737,0.285,-0.959
-0.311,-0.007,-0.013,-0.036,0.910,-0.973,0.186,0.023,-0.087,0.000,-0.568,0.355,-0.343,1.120,0.144,-0.905
-0.161,-0.046,-0.423,-0.434,0.917,-0.754,0.080,0.257,-0.141,0.352,-0.903,0.594,0.088,1.022,0.395,-0.581
-0.142,-0.037,-0.466,-0.401,0.498,-0.537,0.046,-0.159,-0.459,0.011,-1.070,0.699,0.022,0.906,0.318,-0.396
-0.218,0.037,-0.238,-0.506,0.722,-0.610,0.210,-0.379,-0.383,-0.050,-0.579,0.223,-0.286,0.701,0.748,-0.304
-0.271,-0.134,-0.688,-0.408,0.716,-0.476,0.296,-0.041,-0.362,-0.167,-0.724,0.214,-0.345,0.945,0.439,-0.585
0.040,-0.120,-0.682,-0.692,0.606,-0.463,-0.001,0.044,-0.570,-0.278,-0.777,0.366,-0.278,0.610,0.412,-0.271
0.017,-0.136,-0.305,-0.422,0.198,-0.239,-0.146,-0.069,-0.064,0.067,-0.789,0.351,-0.037,0.629,0.204,-0.475
-0.182,-0.401,-0.266,-0.446,0.244,-0.189,0.050,-0.329,-0.149,0.092,-0.727,0.347,-0.257,0.657,0.505,-0.416
-0.004,0.088,-0.041,-0.620,0.121,-0.332,0.014,-0.254,-0.025,-0.129,-1.003,0.305,-0.588,0.602,0.419,-0.559
-0.043,-0.012,-0.398,-0.465,-0.256,-0.148,0.113,0.129,-0.315,0.196,-0.788,0.453,-0.516,0.729,0.665,-1.031
-0.117,-0.288,-0.413,-0.272,0.104,-0.204,-0.063,0.525,-0.224,0.165,-0.796,0.311,-0.012,0.403,0.358,-1.197
-0.164,0.079,-0.274,-0.314,-0.000,-0.434,-0.135,0.337,-0.101,0.466,-0.501,0.281,-0.213,0.298,0.524,-0.735
-0.188,-0.221,-0.317,-0.662,0.136,-0.267,-0.127,0.455,0.073,0.393,-0.553,0.363,-0.057,0.591,0.534,-0.844
-0.066,-0.253,-0.182,-0.517,0.313,-0.264,0.180,0.192,-0.158,0.269,-0.483,0.332,-0.073,0.559,0.512,-0.938
-0.096,0.178,-0.296,-0.462,0.216,0.096,0.039,0.548,-0.195,0.623,-0.767,0.466,-0.432,0.371,0.536,-1.161
-0.223,0.196,-0.299,-0.297,0.012,-0.159,-0.042,0.187,-0.245,0.136,-0.581,0.408,-0.046,0.445,0.314,-0.884
0.225,0.234,-0.205,-0.326,0.046,-0.487,-0.029,0.260,-0.265,0.143,-0.717,0.317,0.007,0.235,0.320,-0.388
0.164,0.267,-0.443,-0.454,0.085,-0.365,-0.126,0.312,-0.303,0.506,-0.888,0.100,-0.252,0.120,0.070,-0.190
0.070,0.162,-0.463,-0.524,0.330,-0.087,-0.110,0.303,-0.255,0.029,-0.891,0.062,-0.294,0.135,0.163,-0.386
0.030,0.099,-0.234,0.000,0.156,-0.124,-0.145,0.286,-0.422,-0.372,-1.036,-0.117,-0.216,0.186,0.260,-0.234
0.110,0.108,-0.280,0.054,0.331,0.219,-0.111,0.155,-0.349,0.044,-0.647,-0.370,-0.075,0.345,0.531,-0.170
-0.064,0.298,-0.343,0.352,0.260,-0.230,-0.072,0.067,-0.537,-0.136,-0.747,-0.005,-0.224,0.488,0.490,-0.093
-0.173,0.016,-0.558,0.158,0.125,-0.283,-0.078,0.353,-0.139,0.068,-0.720,0.108,-0.174,0.605,0.707,-0.466
-0.067,-0.138,-0.414,0.215,0.028,-0.149,-0.041,0.169,-0.229,0.072,-0.528,-0.462,-0.482,0.294,0.540,-0.359
-0.046,-0.163,-0.338,-0.225,-0.136,-0.179,-0.114,-0.013,-0.009,0.147,-0.641,-0.434,-0.527,0.518,0.166,-0.234
-0.315,-0.020,-0.631,-0.299,0.175,-0.064,-0.105,0.142,0.020,0.220,-0.584,-0.361,-0.251,0.691,-0.272,0.137
-0.297,0.151,-0.674,-0.125,0.255,-0.302,-0.104,0.349,-0.042,0.282,-0.632,-0.449,-0.287,0.805,0.119,-0.161
-0.403,0.309,-0.714,-0.092,0.509,-0.364,-0.129,-0.071,-0.271,0.371,-0.570,-0.783,-0.464,0.869,0.241,-0.203
-0.363,0.221,-0.691,0.033,0.181,-0.128,-0.228,-0.220,-0.381,0.242,-0.999,-0.837,-0.340,0.650,0.401,-0.293
-0.327,-0.021,-0.346,0.060,-0.000,-0.199,0.184,-0.182,-0.080,0.237,-0.845,-0.573,-0.075,0.496,0.596,-0.141
-0.163,-0.064,0.063,0.112,-0.044,-0.071,0.260,-0.326,0.179,0.347,-0.711,-0.125,-0.396,0.519,0.179,-0.220
-0.332,-0.324,-0.193,-0.272,0.034,-0.086,0.063,-0.203,-0.084,0.168,-0.756,-0.257,-0.062,0.763,-0.005,-0.111
-0.447,-0.028,-0.139,-0.464,-0.005,-0.359,0.017,-0.146,0.034,0.035,-0.635,0.084,-0.111,0.835,0.229,-0.239
-0.259,0.043,-0.144,-0.331,0.365,0.362,-0.364,0.160,0.359,0.178,-0.766,0.286,-0.355,0.626,0.348,-0.310
-0.214,-0.001,-0.240,-0.288,0.032,-0.067,-0.036,0.298,0.041,0.233,-0.754,0.152,-0.317,0.454,0.298,-0.201
-0.474,-0.229,-0.210,-0.176,0.384,-0.142,0.219,-0.184,0.079,0.230,-0.514,-0.274,-0.217,0.403,0.535,0.068
-0.118,-0.287,-0.174,-0.336,0.258,0.088,0.415,0.035,0.055,0.192,-0.316,-0.452,0.339,0.215,-0.035,-0.098
0.019,-0.118,-0.180,-0.087,0.046,0.286,0.271,0.348,0.107,0.147,-0.511,0.545,0.236,0.304,0.168,-0.135
-0.006,-0.179,-0.233,-0.318,0.192,0.023,0.231,-0.209,0.021,0.417,-0.511,0.272,0.031,0.504,0.344,-0.230
0.305,-0.001,-0.062,-0.318,0.387,0.001,0.213,-0.497,-0.194,0.309,-0.557,0.176,-0.330,0.155,0.561,-0.293
0.160,-0.163,-0.344,-0.139,0.230,-0.191,0.193,-0.252,0.173,0.045,-0.371,0.023,-0.376,0.384,0.605,-0.123
-0.073,-0.184,-0.029,-0.368,0.602,0.055,0.326,-0.140,0.059,0.225,-0.161,-0.057,-0.258,0.558,0.688,-0.251
-0.053,0.122,-0.022,-0.462,0.661,-0.365,0.449,-0.345,-0.107,0.122,-0.455,-0.112,-0.289,0.593,0.958,-0.113
-0.081,-0.144,0.113,-0.420,0.401,-0.603,0.441,-0.006,0.402,0.252,-0.418,0.069,-0.367,0.564,0.492,-0.166
-0.126,-0.112,-0.073,-0.185,0.168,-0.442,0.000,-0.064,-0.009,0.267,-0.077,-0.076,0.255,0.217,0.284,-0.214
-0.019,0.089,0.332,-0.265,0.377,-0.493,0.001,0.192,-0.176,0.338,-0.295,-0.026,-0.127,0.145,0.426,-0.651
0.226,0.089,0.555,-0.371,0.180,-0.619,0.171,-0.117,-0.094,-0.025,-0.347,0.133,-0.261,-0.042,0.560,-0.370
-0.361,0.084,0.368,-0.285,0.329,-0.231,-0.004,-0.630,-0.088,-0.085,-0.434,0.176,-0.103,-0.042,0.279,-0.618
-0.175,-0.245,0.300,-0.468,0.218,-0.163,-0.022,-0.275,0.306,-0.009,-0.429,0.050,-0.192,0.097,0.855,-0.383
-0.236,-0.052,0.133,-0.289,0.645,0.087,-0.344,-0.121,-0.024,0.046,-0.540,0.072,-0.457,0.136,0.830,-0.421
-0.034,-0.287,0.140,-0.095,0.315,-0.178,-0.059,-0.137,0.022,0.063,-0.464,0.380,-0.734,0.115,0.552,-0.372
-0.159,-0.292,-0.092,-0.255,0.254,-0.184,-0.366,-0.502,0.304,0.226,-0.157,0.341,-0.793,0.107,0.406,-0.408
0.103,-0.158,0.112,0.012,0.155,-0.122,-0.021,-0.479,0.326,0.180,-0.145,0.294,-0.202,0.173,0.439,-0.399
0.036,-0.067,0.250,-0.096,0.267,0.128,0.032,-0.647,0.058,0.010,-0.294,0.189,-0.310,0.515,0.339,-0.305
-0.185,0.051,0.115,-0.070,0.490,-0.084,-0.074,-0.600,0.519,0.003,-0.388,0.146,-0.298,0.178,0.384,-0.607
0.274,-0.090,0.133,-0.135,0.450,-0.012,0.019,-0.542,0.426,-0.082,-0.272,0.155,0.072,0.320,0.736,-0.576
0.087,-0.092,-0.313,-0.010,0.349,-0.191,-0.042,-0.299,0.462,-0.051,0.003,0.049,-0.222,0.168,0.417,-0.503
0.374,-0.192,-0.065,-0.322,-0.007,-0.287,-0.226,-0.139,0.503,0.218,-0.276,-0.037,0.099,0.446,0.395,-0.522
0.327,0.083,-0.015,-0.486,-0.065,-0.735,-0.005,0.080,0.286,0.060,-0.480,-0.064,-0.289,0.463,-0.027,-0.705
-0.003,0.255,-0.327,-0.068,-0.043,-0.108,-0.256,0.161,0.226,0.023,0.082,0.127,-0.313,0.305,0.591,-0.601
0.017,0.502,-0.256,-0.061,0.341,-0.431,-0.234,-0.093,0.216,0.290,0.261,0.282,-0.048,0.437,0.853,-0.486
0.269,0.338,-0.240,-0.311,0.058,-0.390,-0.124,0.014,0.005,0.434,-0.033,0.167,-0.011,0.395,0.376,-0.471
0.204,0.251,-0.239,-0.301,0.221,-0.007,0.022,-0.283,0.185,0.215,-0.090,0.354,-0.144,0.262,0.628,-0.660
0.157,0.639,-0.244,-0.286,0.185,-0.111,0.156,-0.437,0.488,0.429,-0.128,-0.009,-0.058,0.341,0.641,-0.542
0.095,0.273,-0.499,-0.339,0.413,-0.129,0.227,-0.432,0.303,0.552,-0.114,-0.041,0.072,0.516,0.752,-0.458
-0.094,0.257,0.037,0.010,0.237,0.099,0.122,-0.228,0.214,0.482,-0.320,0.055,-0.076,0.484,0.530,-0.435
0.110,0.279,-0.301,0.236,0.182,-0.061,0.240,-0.075,0.130,0.696,0.027,0.129,0.006,0.371,0.498,-0.482
-0.102,0.506,-0.044,0.255,0.239,-0.266,0.296,0.285,0.260,0.384,-0.278,0.322,-0.077,0.602,0.765,-0.271
-0.168,0.369,-0.149,0.117,0.436,-0.364,0.054,0.312,0.339,0.397,-0.223,0.109,0.244,0.620,0.861,-0.450
-0.223,0.430,0.054,0.016,0.119,-0.364,-0.103,0.403,0.199,0.244,-0.271,-0.201,0.073,0.926,0.409,-0.223
-0.434,0.120,-0.000,-0.224,-0.267,-0.108,-0.011,0.236,0.136,0.141,-0.214,-0.425,0.088,0.608,0.365,-0.362
-0.160,0.199,0.045,-0.259,0.271,-0.469,-0.213,0.256,0.034,-0.011,0.285,-0.475,0.133,0.702,0.691,-0.023
-0.135,0.232,0.195,0.141,-0.009,-0.520,-0.075,0.346,-0.009,0.102,-0.140,-0.278,-0.175,0.540,0.743,-0.283
-0.274,0.442,0.180,-0.107,0.101,-0.719,0.189,0.274,0.074,0.186,-0.090,0.203,-0.225,0.710,0.662,-0.091
0.159,0.063,0.110,-0.115,0.100,-0.574,0.190,0.106,-0.289,-0.197,0.005,0.024,-0.183,0.133,0.694,-0.122
0.192,0.463,0.208,0.294,0.211,-0.376,0.313,0.422,-0.023,-0.320,-0.065,-0.325,-0.136,0.130,1.012,-0.124
-0.074,0.438,-0.013,0.283,0.050,-0.351,-0.137,-0.181,-0.181,-0.314,-0.215,-0.114,-0.315,0.072,1.007,-0.260
-0.010,0.207,0.107,0.313,0.484,-0.503,0.334,0.231,0.102,-0.098,-0.242,0.080,-0.341,-0.151,0.200,0.269
-0.433,0.064,0.222,0.281,0.393,-0.675,0.188,0.432,0.302,0.028,-0.047,-0.193,-0.302,0.082,0.299,0.156
-0.079,0.076,0.135,0.061,0.527,-0.584,0.084,0.321,0.156,0.463,-0.357,-0.274,-0.283,0.339,0.082,-0.021
-0.062,0.049,0.260,-0.121,0.571,-0.422,0.059,0.245,0.417,0.019,-0.144,-0.353,-0.424,0.150,0.260,-0.096
-0.010,-0.106,0.049,0.106,0.352,-0.412,-0.330,0.539,0.034,0.384,0.127,0.111,-0.575,-0.062,0.101,-0.432
0.151,0.053,-0.185,-0.055,0.444,-0.483,-0.234,0.507,0.201,0.433,0.221,0.434,-0.610,-0.132,0.162,-0.011
-0.050,-0.076,0.077,0.000,0.770,0.081,0.057,0.450,0.014,0.230,0.242,-0.260,-0.761,0.267,0.024,-0.289
-0.130,0.275,0.033,0.156,0.451,-0.049,0.182,0.183,0.119,0.323,0.070,-0.146,-0.780,0.239,0.088,-0.211
-0.223,0.416,-0.268,0.259,0.129,0.017,0.395,0.471,0.044,0.211,0.232,0.016,-0.689,0.088,-0.114,-0.471
-0.080,0.341,-0.279,0.174,-0.037,0.010,0.067,0.011,0.152,0.208,0.652,-0.125,-0.325,0.253,0.018,-0.747
-0.182,0.379,-0.296,0.019,0.074,0.018,-0.101,0.065,0.073,0.358,0.369,-0.058,-0.606,0.052,0.210,-0.870
0.070,0.205,-0.470,-0.190,0.101,-0.363,-0.003,0.540,-0.109,0.271,0.263,-0.433,-0.446,-0.150,0.219,-0.801
-0.370,0.035,-0.322,-0.085,0.331,-0.433,0.304,0.321,-0.101,0.385,0.098,-0.317,-0.421,-0.073,0.266,-0.656
-0.415,0.129,-0.398,-0.249,0.363,-0.764,0.296,0.458,0.109,0.388,0.008,-0.110,-0.146,0.385,0.575,-0.525
-0.259,0.052,-0.042,0.243,0.249,-0.243,-0.037,0.412,0.308,0.357,0.354,0.135,-0.497,0.128,0.756,-0.644
-0.436,-0.298,-0.230,0.190,0.193,-0.085,-0.333,0.316,-0.022,0.225,0.231,0.134,-0.266,0.169,0.792,-0.463
0.055,-0.413,0.035,0.140,0.389,-0.217,-0.071,0.103,-0.183,0.113,0.187,0.247,-0.333,0.208,0.669,-0.454
0.209,0.005,0.083,0.034,0.646,-0.183,-0.285,0.335,-0.085,0.014,-0.069,-0.052,-0.132,0.087,0.723,-0.332
0.271,-0.034,0.078,-0.072,0.699,-0.415,-0.114,0.532,0.053,0.303,0.129,-0.071,-0.510,0.303,0.640,-0.214
-0.199,0.101,-0.051,-0.195,0.733,-0.519,0.080,0.092,-0.121,0.491,0.315,-0.297,-0.279,0.212,0.327,-0.547
0.048,0.311,0.183,-0.189,0.245,-0.091,-0.182,0.100,0.071,0.273,0.365,-0.430,-0.674,0.337,0.053,-0.722
-0.102,0.083,0.016,0.108,0.450,-0.077,-0.062,0.316,-0.090,0.051,-0.021,-0.841,-0.841,0.025,-0.124,-0.624
-0.258,0.262,0.015,0.362,0.614,-0.365,-0.131,0.230,-0.021,0.198,0.023,-0.341,-0.595,0.276,0.100,-0.562
-0.101,-0.189,0.384,-0.200,0.493,-0.195,-0.116,-0.007,-0.018,0.181,0.042,-0.073,-0.288,0.203,0.181,-0.391
-0.047,-0.189,0.176,-0.328,0.376,0.058,-0.121,0.078,0.041,0.044,0.324,0.078,-0.626,0.440,0.078,-0.274
-0.166,-0.076,0.071,-0.217,0.161,-0.236,0.106,0.038,0.051,0.090,0.240,-0.152,-0.644,0.227,0.568,-0.344
-0.059,-0.147,0.183,0.001,0.225,-0.365,0.167,0.105,0.124,0.275,0.171,-0.216,-0.233,0.287,0.719,-0.476
-0.176,-0.138,0.425,0.005,0.119,0.209,0.365,0.260,-0.117,0.448,-0.017,-0.449,0.034,0.419,0.163,-0.265
-0.063,-0.443,0.429,-0.072,-0.051,0.009,0.516,-0.074,-0.188,-0.012,0.048,-0.410,-0.100,0.412,0.563,-0.517
0.192,-0.261,0.179,-0.271,0.206,-0.408,0.088,-0.241,-0.324,0.094,-0.172,-0.551,-0.022,0.460,0.692,-0.884
-0.022,-0.356,-0.107,-0.202,0.595,-0.321,0.102,0.230,0.030,0.430,0.008,-0.507,-0.137,0.153,0.979,-0.699
0.322,-0.319,-0.045,-0.374,0.194,-0.548,0.281,0.009,-0.133,0.177,-0.019,-0.576,-0.257,0.345,0.508,-0.238
-0.114,-0.144,0.039,0.011,0.220,-0.271,0.367,0.161,0.156,-0.186,0.201,-0.444,-0.529,0.135,0.520,-0.227
-0.224,-0.236,-0.041,0.040,0.629,0.116,-0.122,-0.149,0.162,-0.011,-0.010,-0.515,-0.671,0.162,0.389,-0.450
-0.291,0.151,0.371,-0.059,0.921,-0.019,-0.475,-0.374,0.049,0.174,0.183,-0.546,-0.854,0.267,0.752,-0.097
0.123,-0.260,0.112,0.033,0.554,-0.080,-0.252,-0.124,0.243,0.019,0.068,-0.628,-0.551,0.312,0.333,-0.224
0.021,-0.168,-0.042,-0.256,0.545,-0.046,0.034,0.261,0.149,-0.201,0.160,-0.317,-0.770,0.716,0.175,-0.115
-0.200,-0.081,0.022,-0.300,0.727,-0.072,0.176,0.099,0.332,-0.035,0.343,-0.699,-0.335,-0.012,0.103,-0.162
-0.075,-0.084,-0.281,-0.363,0.851,0.339,0.344,-0.019,0.088,0.010,0.228,-0.452,-0.636,-0.261,-0.055,0.175
0.216,-0.334,-0.144,-0.272,0.591,0.145,0.280,0.104,0.102,-0.116,0.225,-0.491,-1.062,-0.004,0.448,-0.026
0.299,-0.641,-0.161,-0.648,0.486,0.297,0.175,-0.020,0.115,-0.080,-0.064,-0.426,-0.270,0.224,0.379,-0.153
0.065,-0.534,-0.158,-0.604,0.844,-0.022,0.127,-0.050,-0.065,-0.100,-0.003,-0.048,-0.817,-0.007,0.208,0.034
0.008,-0.217,0.004,-0.350,1.084,-0.543,0.031,0.087,0.236,-0.075,0.111,-0.384,-0.695,0.238,-0.057,-0.089
0.006,-0.049,0.118,-0.788,0.974,-0.495,0.012,-0.082,-0.099,-0.190,0.383,-0.239,-0.492,0.358,0.135,0.062
0.003,-0.053,-0.074,-0.474,0.581,-0.254,0.018,-0.061,0.165,-0.134,0.234,-0.285,-0.353,0.422,-0.310,0.197
0.045,-0.058,-0.329,-0.189,0.308,-0.494,0.001,-0.041,0.078,0.053,-0.087,0.049,-0.605,0.268,0.050,0.170
0.131,-0.070,-0.374,0.011,0.250,-0.188,-0.051,0.301,0.169,0.132,-0.015,-0.149,-0.566,0.140,0.310,0.219
0.263,0.044,-0.040,0.236,0.278,-0.569,-0.218,0.060,0.202,0.010,0.150,-0.311,-0.627,0.073,0.769,-0.182
-0.100,0.214,-0.076,0.017,0.532,-0.088,-0.078,0.158,0.137,0.026,-0.013,-0.495,-0.580,0.063,0.842,0.162
0.133,0.104,-0.146,0.115,0.418,-0.236,0.301,0.231,0.205,-0.101,-0.190,-0.528,-0.491,0.176,0.697,0.140
-0.092,0.013,0.148,-0.049,0.258,-0.386,0.181,0.416,0.503,-0.104,-0.100,-0.662,-0.297,0.117,0.913,-0.160
0.044,0.141,-0.180,0.285,0.470,-0.628,0.099,0.259,0.180,-0.215,-0.194,-0.275,-0.627,0.105,0.494,0.026
0.316,0.192,-0.344,0.370,0.140,-0.342,0.173,0.245,0.439,0.028,-0.489,-0.378,-0.435,-0.046,0.258,-0.147
0.432,0.052,-0.111,0.181,0.387,-0.461,0.140,0.059,0.645,-0.308,-0.398,-0.656,-0.633,0.076,0.314,0.120
0.088,0.052,0.089,0.102,0.424,-0.501,0.308,0.433,0.668,-0.228,0.010,-0.185,-0.822,0.167,0.606,-0.052
0.178,0.397,-0.001,0.205,0.314,-0.437,-0.037,0.123,0.471,-0.491,0.052,-0.659,-0.743,0.253,0.123,-0.485
0.059,0.060,-0.333,0.205,0.138,-0.341,-0.196,0.300,0.516,-0.369,0.002,-0.560,-0.939,0.227,0.057,-0.222
0.158,-0.272,-0.339,0.372,-0.077,-0.097,0.316,0.052,0.365,-0.191,-0.002,-0.344,-0.339,0.200,0.225,-0.105
0.149,0.241,-0.219,0.293,-0.206,-0.208,0.548,0.045,0.225,-0.147,-0.147,-0.739,-0.613,0.220,0.180,-0.338
-0.114,0.153,0.141,0.156,-0.289,0.217,0.151,-0.034,0.666,-0.136,0.311,-0.629,-0.434,0.022,0.034,-0.014
-0.099,0.318,0.128,0.633,-0.239,-0.084,0.187,0.128,0.240,0.038,0.280,0.153,-0.210,0.135,0.186,-0.085
0.122,0.384,-0.008,0.334,-0.331,-0.334,-0.092,0.287,0.214,0.032,0.253,0.011,-0.220,-0.065,0.210,-0.206
0.073,0.398,0.187,0.301,0.104,-0.166,-0.089,-0.192,0.219,0.180,0.373,0.301,-0.338,0.104,0.176,0.046
0.336,0.444,0.124,0.019,0.223,-0.371,0.225,-0.292,0.058,0.035,0.296,-0.057,-0.223,0.145,-0.019,0.312
27.174,23.348,20.452,21.089,27.286,28.027,22.291,20.827,19.610,19.629,26.280,25.439,28.355,28.842,25.248,26.071
44.726,38.016,33.861,35.001,44.376,46.677,36.051,34.456,32.146,32.365,43.433,42.308,46.511,47.655,41.821,42.262
32.661,27.864,24.661,25.655,32.605,33.718,26.180,25.259,23.452,23.664,31.696,30.705,33.738,34.613,30.047,30.563
42.775,36.377,32.579,33.480,42.958,44.357,34.565,32.919,30.952,31.296,41.301,40.408,44.569,45.246,40.059,40.712
46.744,39.597,35.844,36.778,47.132,48.784,37.951,36.168,33.908,34.239,45.333,44.618,49.196,49.899,43.628,44.587
45.067,37.990,34.575,35.455,45.504,47.147,36.494,35.407,32.734,32.968,43.990,42.829,47.328,48.127,42.127,43.179
39.105,33.097,29.904,31.050,39.498,40.765,31.507,30.878,28.232,28.152,37.684,37.434,41.400,41.830,36.494,37.568
30.624,25.737,23.598,24.323,31.036,31.994,24.940,24.177,22.170,22.092,29.478,29.556,32.565,32.911,29.207,29.737
22.339,19.168,17.419,18.188,22.632,23.246,18.458,17.939,16.318,16.210,21.783,21.400,23.773,23.938,21.469,22.011
16.486,14.150,12.659,13.131,16.512,16.830,13.637,13.014,11.936,11.666,16.014,15.807,16.947,17.846,15.678,16.242
13.535,11.928,10.895,11.171,14.201,14.090,11.174,11.018,9.954,10.148,13.294,13.563,14.005,15.124,13.539,13.088
14.522,12.902,11.573,12.057,15.272,14.839,11.972,12.003,10.653,10.671,14.042,14.127,15.089,16.130,13.944,14.118
18.163,16.388,14.454,14.803,18.970,18.572,15.083,14.661,13.163,13.357,17.644,18.079,19.187,20.070,17.705,17.942
22.679,19.910,17.878,18.622,23.789,23.899,18.687,18.729,16.494,16.778,22.224,22.503,24.038,25.012,21.742,22.038
26.260,22.704,20.174,21.013,27.181,27.600,21.426,20.940,18.990,18.947,25.544,25.057,27.793,28.573,24.563,25.354
26.173,22.699,20.034,20.880,27.188,27.181,21.485,20.724,18.944,18.809,25.479,25.267,27.901,28.308,24.790,25.410
21.469,18.469,16.377,17.222,22.139,22.206,17.623,16.960,15.417,15.370,20.711,20.748,22.404,22.909,20.094,20.590
10.806,10.378,8.859,9.436,12.382,11.796,9.948,9.264,8.435,8.508,11.080,11.138,12.221,12.204,10.818,10.979
-2.730,-1.927,-1.547,-1.368,-2.076,-2.647,-1.368,-1.833,-1.837,-1.729,-2.495,-2.241,-2.451,-2.297,-2.386,-2.708
-18.991,-15.615,-14.046,-13.972,-18.642,-19.939,-14.571,-14.333,-13.678,-14.148,-18.663,-17.971,-19.922,-19.751,-17.418,-17.991
-35.305,-28.816,-26.431,-26.541,-34.917,-36.871,-27.577,-27.168,-25.134,-25.741,-34.321,-33.362,-37.166,-37.100,-32.526,-33.568
-48.735,-39.777,-36.545,-36.662,-48.221,-50.205,-38.361,-37.256,-34.772,-35.001,-46.859,-45.731,-51.217,-50.865,-44.608,-45.987
-56.876,-46.945,-42.358,-42.712,-56.188,-58.554,-44.943,-43.525,-40.715,-40.662,-54.587,-53.240,-59.253,-59.534,-51.901,-53.588
-58.531,-48.469,-43.459,-44.235,-57.666,-60.059,-46.111,-44.689,-41.749,-41.557,-56.352,-54.938,-60.845,-61.237,-53.896,-55.336
-53.954,-44.454,-40.242,-40.519,-52.585,-55.308,-42.131,-41.406,-38.420,-38.263,-51.861,-50.384,-56.195,-56.101,-49.653,-50.871
-44.299,-36.466,-32.936,-32.775,-43.008,-45.608,-34.254,-33.418,-31.605,-31.056,-42.407,-41.405,-45.476,-45.597,-40.892,-41.802
-31.430,-25.647,-23.257,-23.117,-29.868,-32.267,-24.335,-23.461,-22.383,-22.138,-29.863,-29.653,-32.488,-32.177,-29.109,-29.243
-18.318,-14.495,-13.339,-13.155,-16.963,-18.769,-14.084,-13.083,-13.066,-12.733,-17.370,-17.319,-18.596,-18.702,-17.057,-16.491
-7.032,-5.282,-4.949,-4.470,-5.824,-7.380,-5.531,-4.932,-5.322,-4.847,-6.706,-6.987,-6.944,-6.953,-6.324,-6.061
0.073,0.774,0.666,0.914,1.212,0.068,0.301,0.305,0.051,0.357,0.193,0.132,0.765,0.951,0.080,0.815
3.059,3.322,2.797,3.304,4.095,3.395,2.765,2.823,2.334,2.495,3.390,3.211,4.382,4.061,2.570,3.732
2.174,2.313,1.859,2.907,3.000,2.503,2.102,2.263,1.764,2.157,2.373,2.444,3.329,3.431,2.638,3.019
-0.615,0.161,0.029,0.525,0.597,-0.092,-0.080,-0.187,-0.156,-0.280,-0.041,-0.199,0.431,0.370,0.172,0.294
-3.291,-1.929,-2.160,-1.556,-2.477,-2.954,-2.251,-2.259,-2.533,-2.248,-2.794,-3.072,-2.700,-2.723,-2.845,-2.091
-3.973,-2.805,-2.486,-1.801,-3.241,-3.696,-2.640,-2.387,-2.686,-2.844,-3.462,-3.878,-3.515,-3.560,-3.680,-2.739
-0.786,-0.380,-0.058,0.569,-0.145,-0.684,-0.557,-0.255,-0.550,-0.251,-0.606,-0.852,-0.545,-0.188,-0.747,-0.356
6.089,5.702,5.501,5.853,7.252,7.009,5.491,5.458,4.787,4.850,6.431,5.948,7.220,7.599,6.501,6.508
17.128,15.106,13.684,14.065,18.121,18.553,14.178,14.288,12.796,12.452,17.665,16.191,18.586,18.938,16.761,16.944
29.733,26.427,23.647,24.281,31.038,32.257,24.923,24.501,22.084,21.705,30.213,28.855,32.126,32.518,28.992,29.314
42.797,37.163,33.523,33.705,44.042,45.215,35.082,34.001,31.347,31.644,42.451,40.750,45.708,45.956,40.484,41.525
52.753,45.436,40.566,41.331,53.377,55.399,42.839,41.420,38.455,38.582,52.147,49.753,55.908,56.077,49.746,50.767
57.062,49.669,44.131,45.146,58.473,59.875,46.591,45.115,41.759,41.779,56.460,54.156,60.696,61.337,54.245,55.557
55.829,48.170,42.749,43.966,56.708,57.993,44.900,43.715,40.827,40.199,54.604,52.880,59.024,59.522,52.663,53.832
74.697,64.351,57.195,58.714,75.827,78.008,60.372,58.412,54.746,54.316,72.822,71.259,79.523,80.000,70.817,72.350
61.705,53.156,47.151,48.285,62.732,64.512,50.074,48.477,44.986,44.970,60.315,58.528,65.410,66.193,58.536,59.818
18.664,16.718,14.544,15.033,19.232,20.024,15.214,14.943,13.926,13.667,18.698,17.853,20.154,20.172,18.540,18.209
2.161,2.558,1.747,2.389,2.618,2.984,2.107,2.175,1.627,1.774,2.437,2.216,2.939,2.622,2.785,2.601
-11.647,-9.447,-8.523,-8.452,-11.956,-11.852,-9.195,-8.580,-8.486,-8.500,-11.334,-11.105,-12.221,-12.541,-10.905,-10.897
-21.285,-18.007,-16.161,-16.237,-21.905,-22.196,-17.279,-16.623,-15.674,-16.003,-20.602,-20.538,-22.405,-22.925,-19.904,-20.538
-26.389,-22.225,-19.519,-19.835,-26.888,-27.332,-21.044,-20.282,-19.105,-19.062,-25.450,-25.101,-27.775,-28.086,-24.264,-25.654
-26.645,-22.413,-19.810,-20.110,-26.822,-27.644,-21.075,-20.103,-19.156,-19.164,-25.705,-24.707,-27.577,-28.067,-24.694,-24.970
-23.138,-19.871,-17.030,-17.663,-23.728,-24.105,-18.273,-17.751,-16.726,-16.369,-22.631,-21.548,-23.783,-24.159,-21.758,-22.000
-18.561,-15.326,-13.517,-14.080,-18.630,-19.445,-14.735,-13.849,-13.177,-13.432,-17.862,-17.296,-19.572,-19.489,-17.220,-16.976
-14.861,-12.401,-10.688,-11.389,-14.977,-15.889,-11.461,-11.000,-10.676,-10.804,-14.790,-13.984,-15.453,-15.520,-13.670,-13.916
-13.954,-11.538,-9.885,-10.512,-13.928,-14.792,-10.894,-9.930,-9.977,-9.932,-13.489,-13.190,-14.086,-14.581,-12.745,-13.126
-16.627,-13.840,-11.940,-12.426,-16.725,-17.306,-12.995,-12.180,-11.778,-11.877,-15.713,-15.814,-16.841,-17.605,-15.520,-15.660
-22.518,-19.457,-16.788,-17.024,-22.765,-23.996,-18.062,-16.824,-16.406,-16.399,-21.456,-20.984,-23.588,-23.834,-20.923,-21.527
-30.948,-26.274,-23.049,-23.739,-30.605,-32.353,-24.888,-23.342,-22.244,-22.379,-29.800,-28.853,-32.695,-32.741,-28.785,-29.441
-39.142,-33.389,-29.517,-30.197,-39.406,-40.963,-31.640,-29.796,-28.305,-28.389,-37.658,-37.003,-41.366,-41.858,-36.979,-37.346
-45.110,-38.278,-34.096,-34.798,-45.015,-47.193,-36.228,-34.186,-32.594,-32.415,-43.443,-42.526,-47.963,-47.996,-42.313,-43.229
-46.628,-39.725,-35.245,-35.767,-46.913,-48.969,-37.093,-35.881,-33.548,-33.643,-44.888,-44.073,-49.392,-49.619,-44.034,-44.664
-42.458,-36.396,-31.929,-32.555,-42.979,-44.610,-33.921,-33.015,-30.507,-30.747,-40.777,-40.373,-45.024,-45.013,-40.069,-40.514
-32.152,-27.884,-24.333,-24.676,-32.824,-33.753,-25.896,-24.913,-23.458,-23.614,-31.049,-30.969,-33.872,-34.364,-30.369,-30.886
-17.389,-15.052,-13.253,-13.639,-18.172,-18.531,-14.153,-13.269,-12.498,-12.782,-16.615,-16.578,-18.351,-18.656,-16.376,-16.592
-0.178,0.121,0.232,0.186,-0.641,-0.321,-0.010,0.232,0.220,-0.062,0.032,0.190,0.304,0.083,0.193,0.216
17.573,15.116,13.199,14.393,17.221,18.030,14.409,13.626,12.676,12.838,17.553,17.053,18.800,18.798,16.736,16.947
32.300,27.635,24.804,25.672,31.904,33.231,26.142,25.211,23.348,23.626,32.224,30.763,34.442,34.804,30.425,31.247
42.406,36.072,32.351,33.479,42.083,43.821,34.633,33.056,30.735,30.759,42.028,40.411,45.406,45.445,39.917,40.999
46.299,39.733,35.735,36.637,46.532,47.963,37.751,36.219,33.969,33.865,45.847,44.256,49.478,49.704,43.951,44.828
44.845,38.251,34.671,35.094,45.020,46.590,36.465,34.892,32.611,32.352,44.144,42.636,47.883,48.276,42.287,43.682
38.958,33.168,30.350,30.511,38.943,40.304,31.784,30.476,28.295,28.436,38.256,36.936,41.573,41.857,37.129,37.849
30.419,26.130,23.592,24.274,30.274,31.788,24.839,24.310,22.329,22.205,30.226,29.149,32.836,32.547,29.206,29.539
22.317,19.300,17.545,17.609,21.843,23.213,18.449,17.697,16.384,15.988,22.398,21.115,24.090,23.790,21.451,21.801
16.316,14.225,13.149,12.772,16.108,16.657,13.517,12.627,11.705,11.706,16.545,15.330,17.479,17.099,15.588,16.003
