Fp1,Fp2,F7,F3,Fz,F4,F8,T3,C3,Cz,C4,T4,P3,Pz,P4,O1
46.551,-12.314,19.915,-24.672,-1.271,31.259,-7.831,19.452,-15.800,-25.648,-12.220,-22.689,25.047,11.895,11.776,-36.937
40.646,-5.544,24.601,-12.646,2.041,30.705,-6.526,17.055,-13.710,-17.737,-11.344,-26.154,24.345,18.873,7.972,-16.914
48.573,-8.166,27.215,-18.972,3.578,22.892,-0.576,13.859,-7.416,-11.425,-14.709,-18.894,22.213,25.566,5.601,-11.330
55.965,-13.752,31.011,-20.094,-2.863,26.148,0.122,22.081,-4.633,-5.705,-7.448,-16.474,21.332,32.864,10.824,-12.649
59.666,-13.405,32.412,-21.417,-6.098,31.992,0.715,15.145,3.036,-4.231,-7.000,-13.149,21.073,30.936,2.860,-4.064
59.659,-2.644,29.370,-14.947,-8.822,31.996,1.814,14.422,1.152,-9.080,-6.450,-10.256,18.690,40.293,12.625,-4.376
55.802,-4.595,30.671,-20.185,-9.852,32.588,-0.858,3.637,-3.876,2.269,-10.957,-15.634,15.244,36.660,3.664,-10.339
43.058,-9.000,31.128,-26.545,-8.923,27.390,-2.222,4.277,-3.276,-4.405,-9.580,-21.451,9.785,32.146,-4.024,-8.661
30.821,-15.972,26.606,-22.730,-15.900,33.072,0.483,-3.163,0.131,-4.167,-12.553,-21.088,1.520,37.303,-9.700,-13.974
31.468,-22.830,17.465,-26.167,-25.566,20.885,-10.226,-10.622,-1.288,-1.257,-22.770,-19.226,-1.288,26.007,-16.713,-16.804
14.456,-31.150,11.615,-23.762,-24.012,5.249,-18.071,-20.163,0.346,-9.898,-28.384,-18.129,-10.787,15.947,-28.891,-7.557
11.989,-29.873,3.921,-28.300,-23.421,12.753,-23.708,-30.109,-0.474,-16.884,-31.958,-22.707,-23.768,10.884,-33.945,2.250
1.505,-31.421,-0.731,-25.874,-28.539,-0.099,-30.512,-28.413,-5.321,-21.848,-33.237,-17.868,-20.366,-1.822,-38.724,4.197
-7.595,-24.459,2.574,-31.969,-33.816,-10.471,-30.274,-37.269,-2.755,-17.053,-32.789,-20.851,-22.111,-14.115,-33.107,2.499
-16.513,-18.098,-5.618,-30.834,-29.325,-12.927,-42.724,-49.007,-3.042,-18.675,-36.036,-23.300,-26.049,-11.743,-49.238,8.215
-17.523,-25.413,-2.850,-25.640,-27.904,-21.021,-39.794,-53.031,5.420,-18.670,-29.344,-22.279,-30.685,-19.707,-46.838,5.584
-17.298,-19.347,-4.932,-12.226,-26.775,-21.483,-39.257,-57.083,10.014,-8.318,-28.256,-16.767,-33.378,-31.051,-44.970,10.976
-26.242,-16.485,-5.014,-7.977,-7.687,-23.949,-27.971,-49.152,12.261,-7.350,-26.163,-9.141,-32.962,-32.155,-33.872,17.444
-28.265,0.469,-6.957,5.076,-2.774,-26.943,-21.492,-46.138,18.388,6.314,-24.109,-3.946,-26.081,-30.133,-35.447,19.381
-22.881,1.844,-8.765,17.377,-5.679,-16.741,-19.425,-50.456,21.461,8.390,-9.642,5.115,-23.924,-16.035,-30.507,21.409
-21.095,5.587,-5.809,23.779,2.459,-12.347,-12.060,-35.320,26.239,20.534,-8.831,8.853,-16.762,-17.347,-19.503,43.509
-6.468,14.537,-11.457,45.768,19.299,-4.229,-9.029,-30.227,30.990,26.071,-2.986,9.829,-13.809,-6.395,-15.983,47.528
-2.330,14.710,-9.161,48.934,27.878,-0.661,-6.431,-15.127,36.066,31.361,12.456,21.789,-7.143,-15.933,4.881,53.689
2.386,19.564,-7.611,52.281,37.757,-4.076,0.755,-11.216,40.206,37.624,8.449,34.029,-2.648,-5.387,2.759,50.887
-2.988,32.838,-4.620,49.459,45.687,-2.792,4.513,-9.974,39.067,47.129,5.161,46.446,-0.919,-4.284,19.094,57.629
-0.379,38.782,2.840,56.095,46.921,-8.694,6.036,-3.076,44.485,55.693,12.381,39.095,0.101,-14.631,18.073,58.817
12.395,40.715,-4.132,59.325,51.420,-14.595,12.469,-2.629,39.866,42.156,17.178,43.113,2.354,-17.415,18.803,52.044
1.849,37.807,-10.032,59.674,42.451,-14.720,10.258,-13.056,43.632,47.726,13.675,43.032,-4.715,-32.094,19.068,47.189
-2.589,35.305,-9.893,51.856,41.211,-12.247,10.063,-9.900,41.008,60.989,14.402,42.974,-10.680,-27.374,17.637,46.081
-1.341,33.287,-11.279,50.553,45.444,-15.297,10.854,-4.565,29.031,40.682,11.365,33.222,-17.886,-22.204,13.277,29.344
-17.471,33.496,-14.013,48.283,42.392,-20.199,8.131,-13.455,28.713,34.053,8.418,30.276,-17.529,-29.582,5.845,29.791
-24.505,31.038,-24.962,44.439,32.854,-28.321,11.259,-5.826,20.785,29.119,6.326,16.410,-16.997,-33.470,11.216,31.871
-19.682,19.340,-19.965,30.727,23.764,-34.348,16.448,-6.101,12.325,23.214,7.273,10.930,-15.483,-35.097,7.013,25.163
-21.294,10.535,-20.380,26.029,16.364,-31.082,12.332,-6.475,12.059,24.383,11.390,7.834,-10.118,-49.956,10.236,15.018
-19.655,9.705,-19.896,29.146,12.976,-26.296,7.618,-0.289,6.350,17.688,9.461,13.612,-5.962,-49.105,7.971,4.767
-5.586,10.208,-26.361,28.925,14.992,-27.556,17.839,-2.100,1.758,21.130,13.891,9.084,1.059,-47.698,11.865,1.430
8.530,16.209,-16.376,38.117,15.372,-17.109,23.082,6.452,6.773,24.357,6.612,13.245,3.933,-39.113,14.872,-0.412
13.972,12.400,-8.977,32.519,13.813,-10.528,15.227,8.181,1.882,30.337,19.366,9.784,11.159,-28.078,25.372,5.479
18.435,8.270,-7.511,26.779,22.254,-4.564,24.651,11.579,4.664,28.907,22.821,14.309,11.879,-21.718,12.721,4.926
28.913,4.820,-4.420,25.171,24.217,3.033,34.019,19.545,2.682,27.760,24.962,13.935,23.034,-8.788,24.756,8.461
40.781,6.170,4.528,20.726,20.870,17.345,35.833,25.621,4.978,33.987,26.381,19.986,26.955,2.315,33.024,4.654
51.022,3.557,12.285,26.622,40.300,25.034,40.134,28.006,6.937,34.246,28.671,13.583,39.483,13.324,45.975,5.050
58.146,15.463,18.053,30.498,39.117,30.598,42.636,34.362,6.644,31.596,27.663,18.466,41.482,10.971,40.861,8.919
66.354,18.020,20.740,30.290,38.439,39.563,44.278,37.800,8.250,38.066,29.493,15.061,47.029,21.485,55.288,14.576
80.000,20.813,26.470,22.347,38.817,42.778,36.090,36.003,12.226,18.450,30.335,6.589,49.239,19.755,55.012,14.549
79.678,17.912,26.895,13.249,35.412,39.163,42.759,33.839,5.115,20.534,20.821,4.899,45.509,24.526,46.146,10.917
68.330,22.376,22.365,13.089,31.983,42.330,35.702,31.661,5.021,11.282,22.539,4.698,50.779,37.071,47.829,5.578
64.761,-0.241,20.452,7.900,23.195,35.627,28.764,34.515,2.813,3.237,15.794,10.031,40.795,39.331,48.452,-1.290
62.121,-1.081,19.948,-8.973,10.156,32.476,27.113,29.708,-4.195,-3.900,11.894,-2.010,38.375,34.139,35.033,-4.786
51.856,-12.510,18.437,-14.428,-6.091,32.886,18.242,17.072,-13.632,-10.524,6.375,-10.922,32.481,31.425,27.546,-10.561
49.947,-16.960,15.714,-19.167,-4.666,33.691,6.690,-2.558,-23.594,-20.995,-1.428,-18.163,26.702,26.761,16.172,-10.801
38.759,-29.006,9.701,-29.160,-10.998,24.577,1.558,1.269,-18.488,-25.849,-6.196,-22.075,20.202,20.542,9.839,-11.953
33.062,-29.114,7.381,-29.312,-26.770,22.392,-1.111,-3.413,-25.113,-29.850,-12.354,-33.237,13.859,13.721,4.456,-11.847
27.885,-28.526,14.096,-31.577,-25.896,22.001,-10.729,-15.521,-22.240,-40.130,-15.044,-37.858,10.072,18.545,-4.969,-18.515
25.186,-37.638,8.680,-40.607,-31.035,9.133,-12.683,-20.908,-20.408,-31.659,-18.370,-42.003,11.577,14.828,-6.899,-21.450
39.012,-32.583,17.430,-46.097,-34.101,25.280,-18.175,-32.882,-18.912,-26.772,-29.868,-38.092,11.626,13.032,-7.243,-16.619
45.610,-35.769,21.118,-45.104,-31.899,17.689,-14.098,-29.919,-13.767,-13.553,-32.549,-36.542,4.228,24.156,-14.044,-14.658
37.271,-29.130,21.511,-24.867,-28.584,16.273,-15.192,-34.882,-4.124,-24.456,-26.168,-30.322,-0.414,20.727,-6.763,-10.063
41.437,-24.257,18.739,-27.137,-23.829,25.492,-9.606,-32.586,0.703,-29.729,-26.878,-26.258,4.817,22.178,-22.843,-0.134
38.457,-16.645,21.273,-19.190,-23.399,23.802,-10.258,-29.643,3.389,-27.305,-24.570,-18.654,3.136,24.213,-20.498,15.796
34.208,-27.125,27.115,-11.069,-18.982,18.915,-12.137,-23.024,9.600,-16.642,-21.745,-16.121,-0.904,25.443,-24.210,25.370
46.316,-15.220,27.377,-0.632,-16.842,36.050,-9.231,-14.575,13.948,-11.701,-15.302,-1.164,2.678,30.387,-12.763,36.909
44.296,-9.377,30.035,-1.083,-9.996,25.495,-3.736,-17.856,22.605,3.112,-10.562,6.071,3.393,32.619,-14.080,37.963
33.407,1.041,24.308,5.937,-7.350,18.994,-9.500,-10.008,22.526,20.679,-10.892,4.525,6.123,23.974,-5.924,42.669
42.936,14.120,23.157,14.118,3.069,14.794,-1.531,-19.928,23.036,6.221,-7.068,3.496,-5.146,26.490,-6.134,46.961
26.830,12.947,18.384,8.634,8.269,7.503,-3.647,-26.737,26.205,7.474,-11.546,6.268,-3.532,23.720,-10.782,51.464
26.179,16.094,10.159,13.713,0.388,7.117,-15.867,-32.492,24.959,9.322,-5.733,4.270,-4.326,15.104,-4.834,42.205
16.290,14.895,6.490,16.463,-4.880,-2.428,-15.583,-37.236,26.097,6.834,-10.998,6.115,-7.483,5.034,-12.825,36.764
4.474,11.876,7.333,6.085,-3.376,3.634,-14.842,-42.185,29.823,8.784,-21.881,7.425,-17.110,-3.563,-9.960,33.570
-10.255,4.933,2.212,6.198,3.010,-7.722,-22.897,-41.778,25.128,2.214,-18.765,8.172,-24.663,-11.272,-11.323,39.433
-20.076,-4.808,-2.584,-5.141,1.750,-15.221,-30.574,-56.158,20.059,0.665,-14.548,-1.728,-33.819,-27.672,-23.288,28.053
-31.687,2.194,-9.723,-3.272,4.054,-23.857,-38.195,-66.288,19.064,-1.595,-18.202,-7.307,-34.712,-26.337,-26.427,33.289
-37.038,-0.600,-19.198,-4.337,0.057,-36.616,-34.980,-67.355,12.733,3.478,-26.996,-2.738,-37.627,-33.681,-19.140,38.720
-41.725,-0.510,-20.673,-2.355,-3.814,-31.732,-33.989,-59.437,13.408,2.345,-16.339,-2.746,-40.576,-42.932,-23.231,21.842
-53.011,2.975,-28.236,15.638,-4.703,-45.405,-32.390,-48.418,15.065,5.570,-15.425,1.320,-43.815,-54.881,-32.350,16.326
-46.874,6.816,-26.193,15.218,-11.759,-42.147,-32.622,-55.200,15.758,8.060,-14.855,1.927,-42.494,-59.013,-29.661,23.093
-42.069,9.536,-24.471,21.971,-1.253,-34.885,-29.288,-54.323,11.107,21.715,-12.998,11.859,-43.540,-50.283,-20.178,24.555
-37.466,14.098,-23.424,25.865,16.130,-24.739,-21.496,-41.745,20.238,20.827,-2.008,9.728,-39.713,-48.870,-15.977,45.264
-26.926,26.432,-20.713,34.982,13.023,-19.555,-14.215,-38.807,24.657,35.094,1.884,11.189,-37.160,-45.610,-8.031,52.147
-28.714,30.007,-14.614,38.972,16.757,-25.170,-3.599,-32.025,25.319,42.523,2.777,12.354,-29.238,-42.872,1.527,50.811
-28.567,38.266,-14.239,43.924,30.176,-16.801,3.879,-21.717,19.051,51.347,18.866,12.755,-19.822,-36.951,7.864,50.017
-22.385,38.232,-15.166,67.548,37.139,-14.184,11.438,-7.332,25.922,49.662,25.680,19.926,-11.703,-27.892,15.118,47.598
-18.901,41.037,-8.688,62.261,40.415,-12.327,16.182,5.234,26.672,43.236,24.810,23.694,-11.163,-32.399,17.177,48.596
-21.341,52.821,-10.374,55.519,44.615,-13.946,26.673,6.986,20.711,46.467,33.559,27.222,-7.444,-27.096,26.184,44.315
-9.567,50.912,-8.004,51.586,34.893,-3.294,22.487,10.053,22.060,58.815,34.177,25.765,-3.440,-37.120,28.849,36.262
-8.213,46.920,-3.743,50.446,35.739,0.060,18.456,4.155,23.001,54.504,35.282,19.347,1.508,-28.817,29.122,33.489
-4.980,35.068,-12.409,44.598,22.475,1.544,11.079,5.441,13.153,51.419,27.543,18.956,6.247,-27.822,32.636,35.251
-10.527,23.271,-10.023,44.526,21.246,8.894,13.497,-1.647,10.212,43.703,26.676,15.578,6.527,-27.737,34.385,20.700
-6.360,18.535,-12.329,31.751,11.417,2.202,12.879,-5.361,1.918,41.629,21.542,7.499,0.601,-35.086,27.695,8.055
-10.139,7.434,-14.738,15.558,6.087,-6.249,15.206,-1.928,-5.315,28.493,24.206,-4.731,3.533,-36.913,17.506,4.471
-13.015,0.801,-14.435,11.323,0.541,-4.569,10.671,-1.681,-14.828,17.737,21.208,-9.422,-3.369,-39.240,14.645,-0.894
-10.467,-2.826,-15.308,-3.641,-2.866,-2.063,-0.435,3.266,-22.058,12.344,12.282,-14.895,-9.024,-40.200,16.834,-9.147
-16.429,-10.311,-17.808,-13.419,-10.453,1.151,-3.995,-6.468,-24.857,-1.747,5.852,-28.937,-5.935,-41.995,16.382,-17.802
-20.446,-12.988,-21.335,-13.785,-12.081,-11.874,-7.161,-0.175,-31.035,-14.756,3.218,-25.214,0.835,-38.013,9.478,-22.913
-12.681,-11.196,-15.607,-15.849,-5.257,-9.637,-2.860,0.880,-33.817,-22.982,1.264,-33.816,9.373,-35.711,10.244,-32.989
-8.443,-32.175,-8.977,-15.572,-21.395,-4.958,-1.800,-4.385,-36.795,-21.417,0.262,-32.129,12.688,-31.608,8.633,-21.997
3.061,-29.053,-3.883,-20.650,-21.837,6.428,0.664,-6.482,-35.099,-24.422,-0.328,-27.518,13.589,-23.956,2.995,-43.503
16.263,-16.611,0.216,-9.015,-18.117,7.087,3.667,3.359,-31.225,-23.164,-2.015,-30.759,15.508,-5.705,4.119,-46.497
21.468,-30.740,6.434,-7.029,-17.958,19.253,6.714,7.310,-25.511,-18.025,-0.193,-30.627,16.316,1.325,12.660,-27.888
27.245,-29.929,14.363,-7.970,-17.013,33.670,6.409,7.302,-27.705,-11.457,-0.756,-24.460,24.922,4.496,9.474,-33.239
34.769,-24.515,25.164,-8.360,-22.959,31.976,13.024,9.774,-27.971,-7.676,5.380,-22.692,31.024,20.005,14.075,-10.923
48.187,-19.731,27.353,-8.885,-26.506,38.289,12.549,13.605,-23.941,-6.285,2.712,-22.985,38.064,18.969,19.837,-13.195
56.414,-13.514,26.729,-8.604,-17.222,42.498,17.391,15.216,-19.040,-6.888,-0.389,-19.924,35.156,30.992,15.418,-11.458
50.041,-18.179,30.341,-15.829,-20.742,34.303,9.927,14.132,-13.425,-14.007,-1.626,-18.858,30.980,27.887,25.695,-15.321
44.715,-16.248,31.466,-10.670,-18.638,35.508,9.229,5.764,-13.739,-13.343,-7.769,-26.576,22.446,28.873,21.824,-9.304
39.354,-18.821,29.958,-21.323,-27.984,38.434,1.483,1.729,-12.357,-6.426,-8.425,-26.994,17.942,26.681,12.512,-10.249
37.424,-24.899,26.297,-23.714,-36.946,38.319,-6.122,-2.250,-15.709,-23.321,-13.464,-27.256,8.562,23.976,8.148,-12.314
29.873,-31.202,18.031,-26.611,-39.290,35.212,-11.091,-13.104,-21.786,-32.258,-18.734,-31.754,9.173,6.485,4.586,-15.544
20.210,-46.891,17.844,-38.939,-47.069,26.198,-23.815,-17.337,-21.657,-47.661,-19.460,-32.047,-0.315,4.934,-11.741,-23.012
12.165,-51.268,11.851,-39.794,-52.752,21.458,-29.356,-24.157,-24.101,-49.063,-33.918,-36.853,-15.317,4.197,-24.886,-33.531
3.148,-65.381,8.502,-38.723,-55.497,6.529,-41.079,-38.617,-20.325,-46.997,-39.126,-42.950,-18.751,-11.476,-30.110,-36.585
-9.279,-62.477,-1.074,-40.486,-57.108,-0.765,-49.772,-44.003,-22.689,-47.698,-44.017,-41.938,-25.449,-20.802,-36.890,-33.656
-10.348,-53.955,-3.963,-54.022,-66.317,-12.605,-53.251,-47.518,-29.336,-40.618,-50.614,-41.109,-33.417,-23.682,-50.538,-32.969
-10.651,-58.502,-4.694,-45.863,-61.489,-13.100,-53.783,-58.423,-31.484,-45.180,-48.852,-40.611,-39.311,-25.433,-55.234,-25.892
-12.411,-59.174,-7.976,-40.075,-58.893,-18.120,-56.636,-57.790,-24.295,-49.104,-43.691,-41.001,-46.721,-24.285,-52.103,-23.887
-18.940,-51.763,-13.917,-42.578,-46.505,-19.485,-50.160,-64.947,-17.234,-25.825,-38.021,-37.326,-52.275,-32.151,-51.811,-20.517
-25.303,-36.537,-9.885,-28.805,-49.570,-24.444,-60.841,-57.830,-7.468,-19.788,-40.287,-27.531,-44.974,-31.407,-39.603,-3.408
-25.102,-25.981,-6.311,-24.561,-55.554,-26.087,-54.868,-48.869,-11.887,-13.819,-35.288,-16.692,-41.723,-28.558,-40.620,-0.425
-16.120,-14.269,-6.967,-11.485,-41.408,-23.534,-38.016,-53.580,-0.589,-9.657,-35.736,-15.488,-37.078,-21.699,-38.609,4.550
-18.342,-18.186,-11.135,6.723,-38.947,-21.699,-32.456,-49.560,2.424,-10.121,-31.932,-2.311,-40.727,-11.033,-37.408,17.760
-12.397,-1.491,-9.841,7.112,-20.884,-16.298,-28.134,-51.894,10.426,11.550,-20.275,-1.060,-34.714,-13.383,-31.386,12.513
-14.079,-3.619,-9.988,7.296,-16.019,-17.852,-24.880,-45.840,18.180,19.083,-13.982,-4.747,-33.490,-15.133,-21.690,26.614
-19.815,7.009,-9.952,23.135,-6.894,-12.506,-22.252,-37.655,20.466,23.043,-13.540,4.387,-37.745,-18.105,-23.981,32.594
-14.713,8.897,-9.114,26.347,5.284,-14.394,-12.128,-33.788,17.712,20.269,-15.090,4.970,-35.684,-3.204,-25.828,35.189
-21.966,0.988,-12.073,22.158,5.593,-20.685,-15.932,-32.503,20.505,19.353,-6.891,3.399,-35.213,0.299,-13.721,45.321
-17.525,10.455,-16.370,27.215,5.721,-21.968,-10.014,-30.018,13.976,25.932,-6.246,16.743,-34.070,-13.216,-19.938,36.210
-27.686,5.256,-23.718,31.966,-5.556,-29.229,-11.839,-35.979,16.970,29.941,-3.826,10.972,-36.117,-18.620,-12.659,30.101
-36.485,8.825,-28.637,26.506,3.723,-37.206,-15.359,-40.633,12.224,21.544,-16.603,4.613,-39.517,-31.191,-13.139,16.284
-38.874,14.330,-35.941,21.627,4.369,-37.022,-19.486,-45.662,2.951,12.636,-18.385,2.937,-40.282,-45.055,-17.639,25.723
-48.178,7.107,-35.930,10.345,7.916,-30.849,-18.805,-47.177,-4.768,10.585,-10.567,1.003,-45.245,-45.544,-21.816,18.268
-49.304,3.995,-41.962,12.047,-2.924,-39.713,-16.806,-37.653,-3.533,16.336,-14.643,-2.948,-48.616,-55.429,-16.752,13.388
-40.476,-2.365,-44.523,-3.666,-1.676,-48.553,-12.573,-45.781,-13.724,8.609,-13.626,1.616,-45.677,-57.037,-23.682,-4.101
-48.555,1.932,-41.572,5.089,-8.479,-56.221,-12.644,-45.933,-11.717,2.215,-15.491,1.849,-44.103,-54.331,-20.650,-2.876
-42.037,5.719,-41.967,5.468,-9.239,-56.454,-10.081,-39.063,-13.540,3.826,-6.488,-2.299,-41.100,-54.654,-12.151,2.287
-31.426,-2.122,-43.534,6.340,-13.180,-52.479,-13.992,-31.976,-2.859,0.509,-6.878,-2.340,-42.278,-58.143,-5.892,0.132
-30.682,3.016,-40.482,1.965,-10.956,-48.645,-5.016,-32.769,-7.368,8.740,-1.521,-4.502,-36.528,-43.878,-4.074,-0.749
-29.885,5.158,-33.838,8.183,0.553,-47.281,-1.700,-22.260,-5.554,4.398,3.000,1.071,-26.943,-52.911,14.173,3.265
-16.000,10.121,-26.066,17.030,2.440,-39.709,4.074,-15.335,-3.956,13.249,7.138,12.717,-15.087,-35.048,24.765,3.711
-13.121,13.862,-19.212,23.076,3.254,-34.121,10.741,-5.670,-2.457,11.428,10.228,10.735,-5.976,-28.056,22.269,-4.885
-5.245,31.823,-15.830,21.683,10.949,-22.700,18.996,12.017,1.682,6.784,23.554,15.826,2.963,-32.246,35.418,-5.344
1.009,25.149,-9.961,24.895,20.064,-14.735,31.292,13.938,4.580,5.027,27.575,19.214,8.552,-22.634,48.183,11.963
14.680,24.848,-5.021,31.985,24.868,-8.186,25.952,22.419,4.149,8.750,32.170,17.623,21.245,-9.158,49.919,14.687
24.368,20.989,-2.920,34.037,23.473,-0.389,35.076,21.915,-2.765,12.534,31.141,19.853,23.887,-6.621,54.013,-0.797
16.022,11.662,0.486,29.239,22.935,-1.430,27.325,21.978,-2.639,0.842,30.562,25.160,28.606,-8.569,46.390,2.457
31.856,13.468,9.097,22.869,15.118,5.590,26.636,20.883,-5.665,3.398,34.860,8.900,24.654,-1.447,53.965,-0.741
27.602,3.679,10.473,19.337,12.306,6.568,25.572,20.123,-6.341,-5.609,28.711,7.870,19.571,-1.141,40.945,-5.616
25.860,5.617,9.780,9.689,3.473,10.604,30.953,16.620,-13.316,-24.465,15.346,-0.411,16.841,1.148,45.264,-7.092
16.499,-4.636,7.694,-0.613,-3.362,0.192,17.267,17.125,-14.971,-24.332,9.641,4.531,14.467,-4.155,36.654,-19.877
14.056,-17.115,1.574,-17.004,-12.366,6.921,16.645,22.298,-21.525,-37.469,1.462,-4.811,17.382,-13.485,35.194,-29.393
14.513,-18.266,-1.526,-33.373,-26.006,2.363,14.598,7.507,-25.164,-37.355,0.647,-20.401,15.390,-18.318,25.503,-34.921
10.333,-28.002,-0.132,-29.008,-27.275,1.312,8.574,5.159,-33.473,-50.542,-7.469,-30.081,5.329,-17.893,14.776,-48.767
9.877,-43.342,3.575,-36.438,-38.010,-5.857,4.265,1.793,-30.526,-55.561,0.663,-31.352,-0.142,-15.702,-2.973,-56.945
13.469,-52.490,1.661,-29.185,-30.265,-11.666,-1.047,-16.777,-34.151,-70.187,-9.762,-43.177,5.649,-14.196,-2.305,-65.687
14.553,-35.746,2.288,-42.062,-39.194,-2.519,0.810,-22.862,-33.194,-68.261,-11.082,-43.711,-0.874,-13.889,-3.999,-63.647
10.446,-51.730,4.312,-42.072,-46.941,8.628,-6.155,-17.891,-26.107,-57.482,-7.929,-37.145,2.580,-9.480,-0.115,-45.578
12.086,-46.196,5.518,-40.722,-40.329,8.694,-12.605,-13.141,-25.355,-66.398,-13.376,-41.583,1.487,-0.713,-2.936,-45.796
6.888,-42.437,18.520,-45.003,-34.918,10.873,-16.309,-17.649,-26.315,-52.557,-9.794,-43.220,2.992,6.614,-10.550,-39.260
13.150,-43.238,18.279,-28.791,-33.542,14.256,-10.031,1.263,-24.864,-45.624,-6.388,-34.854,7.549,11.791,-10.082,-42.347
20.625,-32.728,25.049,-21.488,-28.751,23.479,-6.138,-1.522,-17.449,-49.792,-6.410,-23.880,6.345,17.448,-6.470,-34.926
21.463,-23.905,24.024,-19.922,-27.841,29.615,-2.099,-2.318,-13.000,-28.784,-7.304,-15.900,10.156,31.679,-15.513,-18.821
34.486,-16.645,26.104,-3.655,-34.614,30.111,-4.823,-1.389,-7.720,-23.942,-7.323,-17.226,14.508,28.843,2.682,-2.048
26.129,-1.270,26.626,-6.030,-31.925,32.975,-6.271,-15.556,-9.908,-23.354,-15.571,-17.146,8.699,36.363,-0.545,2.428
22.452,1.466,27.327,1.953,-20.533,37.283,-1.424,-11.709,-0.514,-35.600,-16.901,-21.786,9.791,31.362,-4.040,3.807
23.548,0.738,27.106,-4.484,-7.968,37.332,-8.783,-16.578,3.862,-32.710,-8.251,-13.773,3.684,26.884,-1.442,-0.669
20.297,5.698,20.841,-1.993,-15.278,25.618,-21.258,-15.916,4.342,-24.695,-7.752,-11.206,1.662,24.884,-7.626,-0.263
18.498,-1.103,17.494,-1.794,-17.012,18.456,-28.950,-18.335,5.702,-20.535,-13.387,-13.654,0.175,22.509,-8.249,1.643
9.935,0.127,13.893,-2.276,-28.062,13.970,-24.760,-26.275,2.031,-30.982,-18.800,-10.510,-5.857,18.850,-20.554,-9.211
0.617,-1.584,7.457,-5.124,-31.863,3.963,-29.259,-37.708,-1.509,-25.465,-27.806,-15.357,-15.560,12.110,-17.536,-3.393
-11.631,-5.389,-0.544,-13.599,-37.583,-5.060,-33.393,-35.502,2.327,-16.388,-31.428,-13.860,-25.331,2.508,-24.418,-5.649
-20.148,-2.574,-6.853,-13.071,-32.432,-15.884,-37.783,-44.957,0.524,-25.792,-31.260,-13.843,-34.785,-4.301,-32.649,-13.308
-28.489,-7.076,-7.823,-13.757,-29.323,-17.562,-44.749,-42.907,5.299,-36.586,-36.154,-6.644,-45.029,-15.525,-32.746,0.336
-27.755,-12.263,-13.940,-12.676,-39.018,-28.658,-45.010,-50.685,-3.035,-26.534,-26.025,-15.439,-43.851,-21.082,-28.151,-10.436
-37.860,-7.831,-20.420,-15.916,-33.335,-30.821,-45.107,-43.454,-2.003,-23.139,-24.200,-7.330,-50.413,-27.730,-38.678,-8.221
-36.985,-3.337,-13.234,-13.914,-28.418,-35.014,-42.208,-47.925,2.530,-17.524,-26.544,0.153,-46.254,-35.440,-41.432,15.485
-30.903,-8.861,-18.850,-0.172,-25.850,-27.235,-32.348,-38.854,6.824,-0.830,-25.629,-1.979,-38.101,-36.451,-32.868,18.192
-33.134,-0.842,-21.794,-5.880,-10.892,-23.972,-21.357,-36.464,16.377,6.198,-16.654,-5.524,-40.375,-37.402,-30.847,16.981
-25.258,4.893,-18.417,8.194,-3.614,-29.858,-22.235,-34.909,21.063,2.364,-11.077,10.948,-30.359,-28.108,-19.984,13.269
-28.373,22.745,-18.939,27.494,-1.500,-20.860,-21.607,-27.256,22.368,16.277,2.184,9.499,-25.252,-19.083,-18.210,22.646
-15.667,30.728,-16.724,31.785,11.313,-15.728,-6.452,-21.144,28.784,25.009,2.361,11.255,-22.963,-18.930,-7.105,30.991
-6.202,34.519,-11.661,48.306,18.628,-10.582,2.369,-13.871,27.188,34.704,13.376,22.847,-20.975,-31.143,6.627,42.144
-16.228,30.700,-19.550,43.541,20.155,-22.236,-9.561,-25.063,19.686,31.006,5.586,16.730,-25.812,-45.480,-2.201,33.135
-21.192,43.382,-21.179,40.186,26.884,-16.200,-11.221,-24.339,23.783,33.432,10.895,19.582,-19.301,-42.369,-2.764,35.018
-4.484,43.368,-22.965,39.546,21.490,-16.476,5.968,-18.604,23.855,40.627,11.330,17.726,-23.276,-35.032,5.345,29.334
-4.703,30.371,-24.140,41.915,19.651,-10.895,3.651,-13.917,23.775,35.732,13.626,22.312,-15.420,-30.202,11.195,36.418
-14.266,32.351,-23.892,45.755,23.546,-12.875,9.307,-9.223,25.875,32.044,16.964,18.575,-11.122,-34.779,21.296,27.928
-12.758,26.130,-24.770,46.186,24.201,-6.599,10.237,0.914,26.162,46.040,18.904,24.881,-8.582,-35.538,24.173,17.446
-12.467,30.827,-21.732,44.614,21.303,-19.054,19.714,4.476,19.736,42.683,17.914,29.190,-12.984,-32.213,29.723,16.279
0.052,29.764,-19.195,43.022,24.289,-11.697,20.990,11.094,16.596,37.920,20.521,26.633,-3.190,-27.884,24.190,9.065
4.496,38.711,-16.128,33.003,23.948,-2.046,26.171,13.328,10.341,45.589,25.770,27.297,-6.256,-24.109,20.995,16.871
5.870,30.024,-14.728,29.372,20.836,7.471,33.256,14.430,12.303,46.133,21.022,24.798,-2.907,-27.152,23.895,9.401
4.041,29.896,-7.822,34.702,17.488,1.986,29.711,11.141,10.263,36.797,25.470,15.680,5.742,-21.860,28.452,0.412
7.549,28.963,-5.225,31.677,24.591,3.891,33.075,23.339,10.007,28.298,24.064,19.218,14.913,-14.060,25.534,1.926
14.624,23.054,-3.994,26.434,20.345,11.631,37.391,23.678,9.503,28.722,25.600,21.226,10.252,-12.514,38.013,6.279
15.606,20.099,1.685,24.504,19.816,19.835,34.730,25.888,8.896,15.258,23.211,24.690,16.992,-11.361,41.672,0.449
20.767,8.934,3.985,24.153,4.225,27.137,33.072,28.154,3.845,13.802,29.312,22.152,23.868,-7.631,34.021,-2.799
26.643,19.866,4.300,20.529,6.313,24.124,38.621,33.264,0.779,19.081,21.498,20.581,21.167,2.471,44.315,-13.162
29.079,18.958,-0.809,24.347,8.325,33.189,42.997,31.112,0.672,7.768,16.293,6.480,25.014,1.203,33.550,-19.629
36.730,11.531,6.347,19.079,3.669,29.775,40.052,26.442,2.246,-0.496,23.541,1.744,24.853,8.829,33.923,-14.641
31.907,-3.174,8.430,12.750,8.405,31.790,32.812,33.006,-5.580,8.372,23.865,0.156,31.881,11.558,33.012,-9.915
35.041,0.165,5.383,11.787,8.183,32.795,33.396,34.284,-7.844,-6.481,21.961,-0.823,26.340,20.931,28.032,-20.636
34.046,9.872,10.494,15.654,4.874,45.423,31.388,27.256,-6.244,-9.721,22.510,-12.530,29.482,25.768,30.699,-18.032
24.775,-1.946,12.198,12.206,9.252,56.250,28.871,28.742,-10.119,-29.688,17.701,-13.516,33.372,21.531,26.565,-19.877
30.017,-8.689,12.712,8.305,3.786,46.635,23.691,24.655,-8.966,-22.491,19.345,-4.521,31.431,22.715,23.166,-18.566
38.593,-6.296,19.402,5.930,-1.037,44.860,21.206,29.135,-12.784,-22.369,10.064,-15.581,25.068,31.634,23.082,-22.418
40.490,-11.723,26.202,5.713,-1.189,42.827,18.494,23.679,-9.890,-18.153,10.067,-13.544,29.742,24.389,18.164,-13.984
38.777,-20.306,28.399,4.127,-4.443,47.439,18.076,21.933,-7.070,-22.248,8.344,-8.616,27.470,31.549,22.171,-18.822
40.277,-20.312,25.241,0.079,-2.383,47.233,8.134,17.519,-11.038,-17.900,4.040,-18.079,25.977,28.504,13.544,-20.674
41.640,-24.480,26.146,-0.785,-9.646,50.958,8.866,16.432,-0.996,-16.646,-3.373,-13.916,21.472,30.198,9.250,-13.047
46.713,-22.859,28.562,2.194,6.899,48.670,-0.353,2.194,-1.680,-27.767,-6.054,-16.112,21.937,31.048,7.718,-7.397
42.003,-23.102,22.825,-1.558,3.117,57.969,6.512,-0.317,-2.320,-22.126,-18.654,-25.737,17.803,29.210,-5.495,-4.989
32.763,-27.920,27.245,-8.415,-5.880,45.645,5.275,-1.370,-2.847,-14.511,-15.326,-14.653,13.987,33.061,-8.633,-13.795
32.765,-30.830,24.643,-1.399,-5.532,51.280,1.126,-2.097,-3.530,-23.910,-15.712,-19.140,8.583,42.054,-6.029,-4.257
35.972,-30.129,16.031,-5.696,-14.496,47.858,-2.200,-1.073,0.097,-27.119,-22.342,-7.771,6.513,45.164,-7.919,1.914
31.547,-25.945,21.318,-2.719,-6.491,42.180,-10.214,-13.976,1.419,-21.839,-12.529,-12.809,6.836,43.869,-3.556,7.104
15.630,-19.048,22.419,1.873,-17.210,38.771,-10.100,-19.492,3.721,-12.736,-17.639,-10.241,2.427,35.811,-11.203,17.445
20.739,-19.799,16.002,-5.323,-17.178,31.131,-5.775,-29.832,6.841,-14.792,-23.944,-5.211,4.822,37.460,-12.459,20.731
14.792,-24.162,13.725,-2.820,-12.400,27.117,-13.850,-29.249,7.585,-10.193,-20.024,-6.492,0.184,29.995,-16.841,15.687
15.739,-15.882,15.010,-1.571,-14.690,24.115,-19.758,-32.442,10.035,-14.333,-23.317,-5.164,1.258,19.956,-6.224,9.631
2.487,-6.532,12.482,-5.994,-17.241,26.145,-19.157,-32.274,17.738,-15.632,-16.109,2.676,-4.245,19.502,-21.147,17.925
-10.910,-2.156,11.424,4.842,-5.332,24.518,-15.423,-28.738,18.623,-3.367,-21.517,1.766,-8.301,4.191,-32.671,25.966
-3.910,2.779,7.495,7.862,2.520,21.129,-13.552,-29.991,19.927,-4.271,-20.490,5.876,-10.562,13.267,-25.262,25.440
-2.317,4.415,5.290,1.399,8.825,18.316,-16.185,-33.029,24.872,0.240,-23.098,12.703,-8.147,2.802,-10.645,37.785
-4.838,3.808,2.264,27.598,9.175,10.142,-13.585,-34.815,24.075,6.782,-17.499,22.244,-10.958,2.370,-10.564,45.645
-15.604,8.759,-1.523,33.103,10.567,2.755,-9.276,-37.872,29.181,19.709,-13.674,16.791,-7.423,5.171,-10.722,43.363
-13.339,17.154,-5.900,27.132,8.952,-1.658,-6.637,-34.494,32.197,18.659,-20.990,14.053,-13.267,3.398,-16.393,45.074
-19.637,20.646,-9.429,21.846,22.607,3.223,-7.122,-41.146,30.242,20.446,-15.247,25.622,-17.720,-6.433,-7.322,40.717
-17.418,33.776,-12.648,38.559,26.213,0.810,-9.915,-36.813,34.516,27.283,-18.026,24.811,-11.114,0.218,-1.837,39.442
-17.777,31.392,-13.503,38.875,17.737,-3.084,-11.961,-24.161,37.796,26.839,-4.383,33.502,-16.924,-13.396,0.001,39.432
-24.182,45.182,-11.926,42.563,22.438,3.019,-8.691,-27.639,29.262,24.116,-2.581,34.534,-15.829,-20.889,-0.864,46.162
-23.128,45.468,-18.891,50.166,21.870,-0.829,-9.460,-28.610,30.382,27.957,-3.349,34.408,-16.328,-19.001,-1.991,49.469
-14.676,41.997,-19.444,51.512,24.892,7.834,-9.233,-25.921,34.634,20.314,0.533,33.879,-15.788,-13.157,8.443,49.981
-9.427,42.675,-20.952,49.551,28.465,-2.056,0.568,-20.218,36.440,37.223,-0.372,36.442,-16.171,-21.905,13.707,47.846
-26.703,36.391,-20.164,58.889,35.690,-3.333,2.887,-20.504,38.232,34.998,4.674,31.641,-6.792,-29.457,10.177,45.793
-16.688,42.201,-20.735,55.594,34.175,3.815,11.239,-11.258,32.039,48.892,12.739,34.295,-13.415,-27.648,12.456,33.754
-15.954,58.011,-23.304,51.658,33.270,-1.300,2.034,-15.061,26.322,47.645,12.823,31.860,-7.262,-27.910,15.378,29.766
-14.013,67.525,-17.461,53.702,31.081,3.704,7.583,-9.091,24.931,46.327,16.680,28.141,-0.838,-27.104,20.153,33.588
-9.492,58.525,-19.727,44.716,21.258,9.288,10.570,-4.195,21.972,42.632,14.555,26.899,-1.584,-27.399,20.376,23.525
2.332,50.424,-18.904,51.198,32.354,11.440,20.524,3.898,19.608,44.359,11.451,18.345,3.540,-30.392,25.395,25.154
0.822,51.652,-17.628,51.498,30.681,8.058,20.074,6.092,22.034,42.320,14.825,29.147,9.227,-32.057,29.180,20.483
-5.017,44.679,-18.563,58.895,34.780,11.639,24.071,10.554,17.913,37.149,15.000,23.691,9.567,-25.197,32.496,15.425
-1.764,44.172,-22.354,61.423,30.794,9.752,21.661,11.459,14.259,31.436,15.657,21.131,14.527,-32.257,29.976,21.355
-0.019,36.584,-19.227,56.283,39.956,9.178,19.480,15.180,16.119,29.310,24.628,24.470,17.974,-26.587,40.912,27.249
3.496,31.475,-12.554,47.605,27.006,14.636,25.683,14.170,7.856,37.266,15.777,24.848,20.378,-17.126,47.174,8.998
15.328,30.010,-7.508,40.620,38.284,19.458,25.680,27.676,7.355,25.660,21.802,17.932,14.428,-17.675,36.886,14.134
27.682,24.611,-3.359,38.607,36.313,16.238,28.953,18.322,2.788,10.020,13.459,20.117,18.752,-18.223,44.466,15.734
33.494,10.536,0.727,31.859,38.435,29.889,22.556,22.756,1.602,20.593,15.698,5.691,23.351,-10.030,57.489,3.750
29.215,8.133,-1.567,20.311,24.456,31.659,21.590,20.709,0.487,18.567,17.077,-0.825,20.557,-9.378,50.846,-7.234
26.761,7.486,0.954,8.840,22.329,35.751,17.960,14.044,-2.566,14.447,20.812,-9.121,29.389,-11.183,54.976,-3.749
26.565,3.782,6.081,-0.081,15.949,39.195,25.113,17.477,-9.303,5.421,16.080,-2.631,34.113,-4.549,44.385,-11.706
27.727,-14.078,5.066,5.563,11.953,40.422,24.740,19.571,-8.312,-6.996,9.538,-3.291,33.198,4.670,38.101,-14.091
26.598,-13.576,9.116,13.456,8.542,34.570,27.777,26.136,-17.957,-7.236,5.218,1.677,29.699,4.652,30.960,-17.946
29.842,-8.377,7.976,5.915,6.698,41.255,10.215,28.345,-20.138,-7.280,2.276,-6.121,34.736,2.773,31.055,-23.006
30.230,-20.087,16.963,-4.463,0.355,39.116,8.052,24.435,-22.847,-15.501,-3.667,-9.422,29.528,11.050,30.848,-29.158
27.485,-28.991,16.134,4.179,-1.336,42.697,8.666,22.018,-19.236,-24.488,-3.049,-15.373,29.498,5.300,24.763,-28.592
29.596,-31.872,16.206,-0.258,1.815,36.249,1.631,17.314,-16.829,-29.545,-6.044,-19.378,21.858,7.732,17.424,-36.503
28.119,-42.216,16.868,-9.797,-3.846,44.621,-2.535,15.975,-20.643,-20.388,-3.735,-20.229,25.689,11.428,11.891,-34.964
18.635,-42.889,19.786,-11.082,-1.648,43.407,-2.854,11.370,-27.796,-21.791,-3.978,-21.264,17.917,20.326,16.654,-30.058
20.228,-45.741,24.283,-5.858,3.037,45.445,-1.046,8.810,-23.111,-26.581,-9.523,-26.087,15.523,25.615,8.800,-28.340
19.965,-40.406,19.176,-17.445,-4.797,47.827,-0.698,4.709,-25.048,-37.567,-17.722,-29.095,15.501,23.754,0.252,-25.214
26.011,-38.175,15.908,-19.829,-3.146,47.087,-4.707,-6.107,-19.420,-27.463,-13.058,-23.169,12.342,27.584,5.241,-30.504
24.660,-34.772,20.775,-12.233,-9.904,37.636,-7.909,-1.680,-18.458,-31.342,-15.217,-25.240,9.535,27.589,-4.819,-35.078
22.466,-28.647,15.565,-3.892,-12.343,42.123,-17.024,-15.713,-21.664,-21.946,-19.947,-27.421,7.480,17.812,-11.946,-25.308
21.494,-32.678,14.710,-5.342,-14.223,41.760,-19.897,-26.601,-16.968,-23.020,-27.291,-21.095,0.828,19.031,-19.099,-21.140
23.574,-16.210,19.186,-11.817,-15.603,33.040,-13.794,-30.374,-19.095,-25.440,-24.990,-21.710,-1.693,17.956,-15.768,-27.631
17.021,-25.881,13.457,-9.167,-18.180,33.211,-20.956,-33.544,-16.174,-18.621,-19.519,-28.483,-3.107,5.814,-7.653,-26.652
21.012,-31.818,14.854,-10.078,-17.377,28.675,-20.024,-31.081,-9.282,-18.532,-30.875,-23.665,-1.814,9.887,-17.112,-23.519
7.953,-26.414,13.472,-16.539,-15.897,23.405,-27.461,-37.065,-8.627,-21.813,-35.926,-27.189,-4.894,3.522,-15.812,-12.790
7.003,-21.593,14.699,-8.183,-25.405,21.302,-29.664,-34.996,-5.010,-18.769,-36.342,-24.764,-10.967,-6.669,-21.276,-22.723
-2.838,-22.453,13.254,-16.863,-22.543,20.315,-29.067,-42.481,-6.106,-14.521,-36.835,-19.244,-15.866,-5.266,-25.528,-17.248
-4.399,-7.872,5.154,-11.997,-18.227,14.682,-36.923,-41.923,-15.346,-18.708,-36.906,-19.831,-24.900,-10.609,-33.050,-11.475
-9.726,-16.566,1.177,5.993,-15.332,9.864,-31.125,-38.134,-8.825,-10.043,-31.509,-16.974,-29.378,-11.879,-33.796,-11.520
-19.929,-16.396,3.750,0.778,-12.069,5.555,-34.135,-40.238,4.641,-7.956,-30.734,-20.186,-24.782,-17.696,-30.344,-4.349
-13.342,-13.771,-3.642,5.842,-13.623,-6.899,-34.229,-40.814,0.517,-6.960,-34.519,-13.168,-24.989,-22.417,-26.769,2.621
-25.772,-12.127,-2.968,1.165,-6.904,-8.741,-37.492,-39.501,5.326,8.887,-29.667,-5.655,-29.114,-19.886,-22.355,10.277
-21.336,-2.920,-6.951,5.755,-1.879,-4.504,-33.757,-55.766,7.878,2.926,-27.371,-2.027,-27.892,-10.845,-33.778,14.802
-21.879,-2.357,-12.242,3.764,2.755,-1.717,-30.462,-55.846,7.874,11.648,-24.765,-1.282,-27.143,-24.682,-36.963,19.072
-36.817,2.574,-14.823,8.056,4.857,-9.192,-29.167,-51.740,9.622,7.278,-18.909,-3.293,-30.975,-33.806,-30.018,20.062
-40.639,9.368,-17.597,18.983,5.170,-9.327,-28.441,-53.575,15.265,5.959,-18.942,4.639,-31.277,-41.274,-26.136,24.257
-47.073,14.878,-17.835,22.101,3.661,-14.533,-29.254,-47.561,21.437,8.221,-19.554,17.318,-31.482,-31.771,-19.863,17.651
-42.671,4.839,-21.588,31.605,14.285,-13.257,-16.592,-51.769,19.994,13.447,-15.762,13.862,-30.933,-33.090,-18.974,17.411
-46.837,5.317,-22.011,28.628,16.503,-19.330,-14.879,-42.853,17.584,14.362,-15.578,12.752,-28.301,-39.596,-29.241,32.528
-48.534,16.443,-20.831,26.843,18.363,-20.064,-27.585,-36.909,17.171,18.606,-12.235,16.843,-28.178,-48.192,-25.893,29.324
-45.691,21.335,-27.296,24.932,18.569,-18.216,-9.722,-33.241,11.641,25.868,-9.705,16.456,-32.458,-50.077,-19.252,26.010
-51.933,27.934,-27.988,27.956,15.675,-13.722,-3.181,-29.558,13.421,27.788,-8.703,17.809,-31.514,-48.903,-11.451,32.216
-42.272,23.132,-25.092,36.172,27.027,-22.628,-13.647,-29.426,10.268,24.673,-7.091,13.772,-29.056,-45.494,-2.812,28.067
-46.269,21.992,-26.981,40.833,30.540,-21.219,-1.970,-22.355,11.776,24.387,3.252,16.597,-21.548,-45.472,-0.278,24.772
-57.858,20.353,-23.634,33.274,32.040,-23.730,0.683,-25.983,11.567,22.261,1.959,12.752,-18.669,-46.752,4.331,21.853
-46.055,15.091,-22.875,29.684,30.256,-18.033,-1.400,-17.597,6.202,23.745,3.121,15.973,-13.950,-50.635,11.130,22.600
-40.175,23.077,-15.917,29.049,25.605,-6.321,2.220,-12.841,4.853,26.011,6.367,19.708,-4.188,-46.164,22.699,24.386
-36.096,23.744,-24.454,28.904,34.713,-13.578,7.903,-7.006,2.851,21.798,6.557,11.156,4.769,-48.803,18.950,17.211
-29.085,22.732,-17.260,31.386,30.833,-8.561,0.652,-1.449,1.317,26.951,8.320,4.072,0.174,-49.515,22.602,10.580
-28.871,20.241,-16.457,29.984,31.030,-2.578,8.098,-6.882,0.292,19.421,14.593,8.360,7.797,-51.377,25.243,1.390
-32.139,12.987,-20.989,25.669,32.127,-0.685,8.485,-5.516,-8.523,14.420,9.287,7.229,2.917,-42.417,19.731,5.614
-22.793,12.227,-15.109,17.296,25.248,6.143,8.059,6.667,-10.412,6.984,8.139,1.643,0.232,-38.369,26.362,2.580
-18.260,11.596,-11.084,14.723,18.082,3.571,5.981,10.337,-17.054,-0.335,14.006,-1.497,7.036,-32.564,32.782,-7.855
-6.540,6.844,-8.422,5.899,14.655,15.104,18.512,10.332,-14.929,-14.454,7.432,-3.149,10.820,-25.484,34.851,-9.855
-7.713,-1.229,-4.283,7.891,7.712,14.904,29.799,8.299,-11.398,-0.837,2.946,-2.230,16.400,-31.233,36.095,-8.953
-2.484,-0.549,-3.191,14.447,4.668,6.978,20.562,12.885,-11.765,3.629,6.283,-3.564,18.324,-21.972,32.466,-7.217
-10.199,-15.927,-2.429,16.926,13.423,9.625,17.621,17.564,-16.236,-0.001,5.435,-10.859,20.266,-25.103,35.765,-15.257
-3.876,-6.224,5.807,8.370,12.095,12.818,12.131,16.531,-20.773,-12.910,6.879,-17.189,16.450,-26.842,32.598,-18.438
7.933,-12.657,8.236,7.645,10.284,18.489,11.590,16.060,-22.013,-18.484,3.326,-17.379,11.024,-16.321,35.671,-24.153
13.192,-8.083,5.126,3.641,4.997,15.616,14.541,11.230,-18.733,-23.534,2.944,-25.232,23.988,-11.405,42.378,-24.579
19.355,-12.388,8.317,-5.759,2.194,27.013,3.171,11.541,-20.551,-17.329,5.563,-22.489,26.738,-4.051,32.554,-32.265
19.859,-21.451,12.101,-7.002,-3.010,26.954,9.940,17.005,-20.251,-21.965,8.186,-26.505,22.824,-5.838,35.346,-31.091
17.045,-30.525,10.281,-22.013,-2.690,29.096,9.447,7.530,-18.279,-30.047,0.552,-27.138,22.314,8.487,27.111,-31.755
26.778,-31.897,7.459,-32.403,-4.760,35.975,12.983,5.591,-23.585,-36.042,-4.218,-30.000,25.380,-4.425,17.762,-21.432
25.504,-34.212,7.631,-32.487,6.374,42.471,13.404,5.533,-25.577,-35.887,-14.795,-36.261,21.019,-3.051,12.440,-34.749
26.934,-26.227,9.648,-39.924,-2.749,33.799,3.915,-0.795,-22.154,-43.646,-8.760,-34.081,24.783,1.550,16.096,-31.755
25.589,-24.462,12.684,-36.378,-10.186,40.537,-3.470,-8.671,-23.531,-45.367,-16.237,-38.011,26.667,-3.200,7.870,-24.814
19.611,-29.611,16.349,-37.974,-13.158,36.594,-3.142,-9.570,-27.496,-39.577,-21.224,-43.316,20.315,2.757,6.983,-30.760
27.106,-35.052,18.520,-41.927,-15.757,28.463,-8.806,-10.772,-28.888,-40.521,-24.120,-41.404,14.577,1.063,5.596,-24.939
23.430,-39.989,11.592,-43.769,-16.066,37.666,-13.327,-16.704,-19.676,-32.370,-34.486,-36.809,12.106,0.814,1.243,-22.772
29.226,-46.722,14.127,-39.171,-26.289,36.955,-12.817,-19.325,-20.437,-28.518,-28.446,-31.284,8.798,-2.636,4.549,-21.731
26.661,-44.411,10.669,-32.245,-18.013,31.220,-13.361,-21.287,-23.502,-31.630,-24.450,-31.787,2.041,2.339,6.520,-12.687
24.335,-36.338,17.750,-33.390,-26.842,37.209,-18.917,-24.872,-21.686,-37.316,-25.553,-29.549,4.355,0.275,-7.852,-11.745
7.538,-37.625,15.113,-34.644,-24.352,27.954,-25.503,-27.802,-21.746,-34.283,-25.622,-33.635,0.166,-3.923,-8.394,-14.263
2.131,-28.944,13.289,-28.742,-22.394,21.389,-29.396,-37.095,-19.683,-34.634,-28.583,-24.348,-0.883,-5.024,-9.094,-13.896
2.477,-23.512,15.167,-21.447,-26.738,16.640,-32.372,-44.525,-17.721,-43.165,-31.617,-12.886,-7.081,-0.506,-14.617,-7.425
3.865,-30.080,15.865,-29.488,-27.700,25.747,-35.205,-52.215,-8.933,-32.109,-26.661,-10.785,-15.118,-0.885,-17.880,4.903
-12.050,-36.392,7.275,-28.647,-22.867,19.931,-29.038,-58.020,-0.488,-35.826,-26.274,-13.302,-19.538,0.044,-16.201,4.008
-10.381,-34.562,4.732,-26.134,-19.958,15.759,-35.695,-53.322,-7.416,-25.623,-23.197,-1.593,-29.605,-6.009,-21.847,-1.262
-14.079,-32.778,3.780,-15.689,-26.180,12.975,-35.461,-52.200,-5.400,-24.944,-21.886,-4.089,-26.393,-7.509,-24.045,6.943
-19.258,-40.256,3.542,-23.246,-19.324,11.274,-38.024,-62.672,-4.306,-12.291,-24.717,-5.441,-22.371,-10.524,-25.716,11.213
-25.032,-23.976,-2.139,-23.356,-14.613,6.754,-30.589,-57.490,4.677,-5.460,-25.397,-2.500,-31.621,-18.538,-25.233,13.307
-24.653,-12.944,-2.563,-14.094,-5.111,-1.076,-38.180,-55.526,10.737,-11.822,-25.078,8.269,-27.001,-22.103,-23.725,13.748
-28.987,-6.276,-6.547,-10.734,1.216,-8.252,-34.781,-53.129,13.385,-7.226,-18.072,5.812,-24.796,-24.197,-26.212,24.612
-34.590,-11.200,-11.715,-2.968,5.756,2.320,-28.867,-53.607,11.359,-3.706,-15.254,11.046,-26.273,-28.091,-8.555,28.024
-34.885,-4.414,-12.447,-0.633,9.979,-7.570,-29.286,-62.830,12.229,2.443,-21.363,12.015,-32.839,-26.884,-8.262,28.326
-39.560,-1.924,-18.096,1.257,8.067,-7.498,-22.105,-50.252,16.002,7.752,-21.992,16.729,-32.238,-36.630,-7.301,29.239
-39.456,2.968,-17.212,21.809,15.951,-9.316,-27.187,-43.955,17.610,5.902,-17.672,32.789,-35.797,-43.691,-11.896,35.348
-43.934,4.284,-25.750,28.904,19.243,-14.498,-20.661,-34.310,14.065,10.114,-9.891,27.756,-35.105,-39.111,-12.764,25.553
-32.516,13.024,-23.403,30.178,17.656,-18.711,-19.124,-43.531,16.419,14.979,-2.281,23.186,-36.892,-43.659,4.034,30.041
-30.660,5.906,-23.447,35.078,28.150,-20.219,-10.244,-45.343,8.422,27.449,1.426,28.436,-34.536,-51.094,-2.708,34.046
-37.439,6.889,-25.630,31.249,22.634,-20.907,-5.256,-37.709,11.387,28.073,9.336,37.864,-26.134,-54.880,-3.493,36.386
-31.402,20.757,-27.808,39.471,24.527,-22.516,-12.108,-33.942,6.298,26.740,11.673,42.039,-25.456,-44.694,4.874,40.063
-21.707,25.483,-20.081,41.567,25.914,-15.913,-8.402,-26.659,6.728,28.546,16.015,30.411,-25.774,-38.863,4.817,33.149
-29.364,23.456,-21.238,47.311,21.514,-21.343,2.142,-21.822,11.046,41.154,21.037,31.906,-18.439,-49.572,10.171,35.878
-18.417,29.432,-21.227,37.497,23.293,-25.874,7.845,-17.154,17.901,44.607,23.216,29.580,-16.097,-53.507,16.425,30.756
-14.535,21.307,-19.735,36.717,36.849,-26.474,7.170,-10.441,9.999,33.400,21.260,27.321,-13.859,-43.413,14.598,29.817
-11.517,18.049,-27.017,35.994,42.388,-19.362,8.822,-12.113,10.062,30.000,15.219,36.417,-12.930,-39.910,14.089,33.486
-10.875,19.458,-23.198,30.471,40.812,-25.790,15.363,-0.162,4.325,39.744,28.504,37.161,-6.519,-42.698,22.686,28.838
-8.824,20.846,-16.804,26.735,36.284,-19.527,18.768,3.134,6.025,32.260,24.906,30.627,-7.741,-40.946,29.505,25.357
-14.896,27.732,-17.925,26.316,42.941,-15.808,12.545,5.952,0.862,35.638,23.918,35.569,0.091,-30.816,22.912,23.951
-13.212,13.627,-16.365,29.677,49.389,-6.040,12.974,6.064,-1.683,30.688,22.018,33.484,1.234,-28.287,18.200,6.281
-15.879,19.709,-15.011,23.567,37.787,-7.125,16.193,18.979,-4.321,26.846,26.223,29.361,4.398,-37.701,18.334,5.115
-2.599,24.367,-11.458,17.329,40.285,-7.782,22.011,12.873,-5.917,20.276,28.101,26.762,7.821,-27.434,25.149,-0.230
-6.354,10.946,-11.170,18.066,34.206,-0.635,23.821,16.648,-6.491,11.947,29.196,20.824,13.837,-28.773,22.447,-4.448
3.386,5.116,-8.213,20.993,25.882,9.083,22.622,17.256,-6.619,13.902,33.569,8.602,17.455,-10.634,22.642,-2.187
7.884,-1.286,-1.756,16.956,39.297,10.446,22.737,24.697,-9.725,14.097,23.929,7.452,22.019,-13.096,35.654,-7.737
6.295,6.150,-2.083,13.266,36.875,6.282,27.156,36.387,-7.763,9.058,25.033,8.576,24.340,-2.731,32.349,-11.524
6.447,5.926,1.092,7.348,40.045,14.985,26.659,35.710,-14.430,1.091,23.367,8.967,28.970,1.839,35.502,-8.734
9.809,14.347,5.556,4.501,38.599,14.224,27.742,33.966,-17.054,4.680,18.113,6.904,36.291,11.038,30.995,-8.348
13.461,8.835,5.213,8.645,33.159,18.119,25.241,28.555,-13.291,-2.435,16.591,8.210,41.879,14.737,31.350,-21.761
22.635,6.730,4.525,-0.537,26.782,19.181,25.759,29.041,-15.401,0.427,15.063,3.107,40.411,6.955,34.470,-19.874
21.334,-0.492,10.065,-6.393,12.372,24.155,19.808,23.952,-14.840,-1.463,11.717,-9.943,39.427,2.420,30.019,-16.520
25.902,-1.898,17.468,-2.644,14.117,23.910,8.734,27.652,-22.686,-16.694,6.591,-8.632,36.342,8.169,28.498,-21.215
29.127,-11.647,23.656,-9.754,8.680,26.118,9.967,25.915,-26.149,-15.307,6.160,-7.269,29.726,9.020,25.023,-33.201
28.254,-10.359,20.547,-8.555,6.517,37.388,9.620,24.788,-27.887,-10.402,-7.261,-7.976,35.154,18.521,14.827,-27.134
28.890,-4.776,18.872,-21.918,3.184,37.046,6.473,24.660,-24.264,-19.596,-9.093,-16.496,34.768,12.220,18.072,-21.365
28.518,-6.123,16.988,-15.526,-6.911,35.735,-6.274,13.927,-25.758,-16.748,-7.931,-16.152,27.228,15.534,15.745,-14.462
19.518,-9.754,21.169,-11.533,-10.628,36.841,-9.225,13.510,-22.885,-12.914,-11.482,-13.173,26.364,14.905,16.911,-12.971
24.597,-9.387,20.591,-11.558,0.772,43.230,-11.215,7.399,-23.255,-18.177,-15.921,-14.609,22.870,19.146,11.223,-17.638
13.750,-10.676,19.627,-8.179,-3.579,36.756,-6.079,9.386,-21.884,-25.976,-9.431,-15.757,22.882,25.627,0.369,-17.116
18.781,-23.449,22.142,-8.868,-7.763,41.522,-15.244,5.120,-13.999,-21.821,-3.631,-9.588,16.019,19.260,-1.894,-14.792
19.488,-19.102,19.654,-9.303,-8.614,34.528,-9.568,3.094,-11.822,-22.432,-14.384,-16.199,20.804,15.866,-7.567,-12.314
13.686,-23.634,25.135,-8.375,-8.026,32.188,-17.889,-3.790,-1.675,-14.418,-12.179,-21.883,13.783,20.984,-16.626,-13.577
19.184,-18.249,26.051,-8.843,-8.095,23.828,-22.493,-5.049,-8.286,-16.461,-20.979,-11.861,13.453,25.064,-11.732,2.156
7.680,-13.410,15.849,-15.259,-13.338,20.277,-27.668,-9.732,-6.411,-23.169,-23.410,-8.143,7.658,25.628,-21.248,-1.463
14.574,-13.123,11.303,-9.116,-9.238,19.957,-33.609,-13.605,-4.814,-24.824,-25.617,-10.266,-3.365,28.292,-19.563,1.618
-1.336,-6.127,11.663,-16.503,-11.014,17.264,-35.499,-18.949,-2.359,-9.460,-26.235,-11.633,-5.510,20.049,-14.693,8.256
2.434,-5.241,15.912,-9.909,-12.237,18.840,-37.616,-26.147,-0.564,0.126,-27.720,-11.371,-2.799,19.349,-11.490,12.041
-2.915,-4.683,9.708,-2.213,-8.312,18.933,-35.139,-23.497,3.944,-4.233,-28.290,-4.831,-8.315,17.070,-14.230,10.139
-3.718,-0.316,8.227,-4.254,-6.742,20.784,-35.359,-25.568,2.750,1.337,-33.100,-6.321,-11.958,11.150,-16.964,14.489
-11.794,0.738,8.218,6.349,-0.355,15.951,-28.925,-16.125,5.824,8.092,-31.155,2.903,-16.696,11.424,-22.127,24.693
-13.139,9.252,-1.595,6.701,-3.649,4.328,-34.029,-18.461,14.653,10.138,-25.697,7.343,-19.245,0.218,-19.630,14.282
-18.404,18.865,1.524,14.092,3.259,10.887,-38.549,-22.785,12.677,12.119,-30.179,12.622,-15.850,3.599,-15.973,17.519
-14.422,14.482,-1.620,20.621,0.490,7.496,-36.705,-33.112,18.247,18.658,-25.411,13.611,-22.133,3.141,-9.070,35.836
-14.361,22.795,-1.116,25.554,4.975,-9.591,-36.231,-30.713,19.378,23.452,-17.779,18.430,-22.835,-6.045,-6.056,32.681
-23.700,21.668,-8.342,40.669,8.397,-12.959,-33.290,-28.547,22.240,19.215,-20.336,14.782,-16.441,-15.692,-14.969,25.079
-23.055,26.419,-12.178,38.322,18.254,-19.787,-23.449,-41.265,24.921,29.567,-10.034,18.135,-17.723,-19.548,-7.625,23.074
-37.600,25.506,-8.900,42.799,10.813,-12.684,-26.491,-36.597,23.910,27.347,-6.757,18.694,-18.236,-20.993,-3.066,25.854
-29.579,27.850,-12.276,39.474,15.772,-14.817,-23.869,-27.977,21.404,32.294,-7.213,18.024,-16.825,-37.877,-7.884,35.588
-28.322,29.961,-9.948,42.045,32.524,-15.634,-24.353,-24.805,19.361,30.235,-4.795,20.265,-19.749,-36.957,-4.517,33.375
-34.118,33.302,-16.933,42.402,29.553,-20.911,-22.442,-26.744,21.120,35.498,-7.255,21.030,-12.613,-35.933,-8.413,24.176
-36.045,46.164,-19.512,32.374,35.890,-13.103,-20.056,-19.544,24.610,33.326,-8.657,24.488,-15.111,-42.349,-5.999,37.302
-39.380,59.448,-19.826,40.923,36.116,-13.609,-9.809,-14.311,22.481,34.985,-3.099,34.311,-16.161,-45.297,4.943,29.490
-32.722,54.816,-18.066,44.887,34.255,-10.977,-3.035,-17.718,20.118,43.849,-0.978,35.868,-15.498,-43.386,11.207,25.560
-39.754,45.131,-18.175,46.848,37.332,-9.669,-0.047,-3.835,25.557,44.169,-0.647,32.770,-16.557,-45.109,10.769,25.374
-36.423,52.762,-23.411,43.608,48.185,-8.883,-0.170,-4.704,26.494,37.346,8.440,36.497,-13.897,-40.018,17.600,17.092
-36.412,54.133,-20.484,44.926,51.712,-11.591,4.954,-1.113,19.290,33.117,14.503,33.752,-5.955,-39.329,21.154,21.110
-24.613,49.387,-18.834,61.407,43.222,0.151,10.909,9.779,13.559,27.750,15.704,31.329,-7.175,-28.964,28.432,14.909
-22.987,49.633,-15.891,60.762,42.025,-4.985,21.472,11.139,18.496,23.046,20.619,27.741,-4.098,-41.095,29.622,14.632
-19.717,48.776,-12.657,51.593,38.983,1.521,22.506,12.312,20.367,36.109,14.867,18.135,5.810,-31.249,30.523,5.534
-13.798,44.486,-11.484,51.369,36.991,3.839,28.732,18.955,9.386,33.135,16.603,17.148,11.174,-30.762,27.213,3.195
-19.722,45.288,-15.875,50.150,47.031,7.957,21.303,22.387,5.732,33.537,21.049,21.150,15.324,-26.315,35.427,8.850
-16.860,38.913,-13.411,42.601,45.937,-0.402,23.474,30.577,-0.604,30.363,22.522,8.697,10.636,-26.555,38.957,14.868
-18.252,36.930,-9.271,43.471,47.813,4.028,33.303,31.706,6.429,23.631,19.391,12.006,21.760,-22.569,37.215,13.995
-3.791,30.497,-8.239,39.742,42.770,10.635,33.574,29.131,6.605,32.236,23.005,9.101,23.778,-4.613,41.848,12.586
4.236,14.505,-6.295,35.567,38.476,15.292,33.063,28.822,2.043,21.099,19.807,14.799,24.759,-6.742,42.188,6.183
6.677,6.654,-3.837,28.257,34.145,13.622,32.108,32.933,5.973,17.089,17.323,11.148,31.646,-1.162,44.372,-5.052
6.140,18.398,-3.629,20.890,26.810,21.197,27.005,30.947,-4.620,9.390,8.029,9.563,34.936,-1.755,45.830,-13.917
11.594,11.773,-1.008,14.003,36.037,30.394,18.972,26.477,-4.894,19.340,9.813,-0.257,31.934,12.827,40.548,-14.175
8.282,9.591,3.074,11.871,21.325,23.668,28.109,22.976,-3.945,11.940,18.135,0.661,36.544,24.671,31.318,-19.422
18.670,9.779,7.619,6.944,23.550,35.604,25.673,22.798,-7.471,8.497,20.294,-4.295,36.806,20.895,37.346,-12.033
17.408,5.975,10.594,6.971,3.257,37.789,24.923,27.319,-13.173,-4.934,19.474,-5.867,32.834,26.148,37.658,-5.375
13.023,-3.691,14.396,-0.205,9.144,24.484,17.466,22.136,-15.838,-6.007,14.642,-11.773,32.095,20.954,31.482,-14.057
22.792,-12.149,18.333,-8.922,11.929,26.788,12.890,30.461,-24.757,-17.436,7.751,-8.826,29.351,21.450,28.016,-16.399
34.398,-11.392,16.989,-11.439,11.385,28.543,8.234,23.621,-24.201,-15.468,3.967,-13.018,34.592,23.067,29.618,-18.277
28.093,-12.799,15.444,-12.822,-2.111,37.234,-0.925,16.308,-24.658,-11.029,-4.254,-13.971,31.510,26.154,22.307,-16.234
31.365,-14.119,18.549,-15.143,-11.693,42.184,-3.654,19.076,-22.391,-20.222,-3.647,-14.402,28.086,23.735,15.918,-18.795
35.586,-15.171,25.734,-30.009,-17.300,31.844,-5.925,20.320,-18.709,-21.298,-7.226,-12.100,24.224,19.833,21.720,-14.300
28.394,-16.587,24.045,-27.322,-9.652,36.899,-10.015,16.544,-15.936,-23.677,-9.877,-20.348,18.400,20.162,15.525,-7.265
28.236,-18.654,17.363,-27.244,-25.098,35.645,-16.657,11.118,-20.158,-20.878,-13.359,-21.163,22.605,16.725,22.259,-10.035
17.891,-27.516,16.706,-21.523,-24.157,33.730,-16.121,0.050,-21.309,-28.246,-19.514,-20.741,13.948,20.536,16.360,-10.379
14.185,-20.749,17.250,-31.021,-15.215,32.942,-17.425,-4.633,-22.709,-25.341,-11.343,-25.917,13.055,18.895,-1.921,-9.083
3.057,-27.619,18.995,-20.006,-13.137,30.091,-22.461,-12.070,-15.303,-29.502,-16.550,-21.647,6.310,21.208,-2.118,-11.077
5.640,-30.422,16.354,-27.145,-21.754,21.992,-24.565,-15.189,-15.764,-30.939,-22.642,-20.608,4.621,12.777,-3.270,-5.753
-0.262,-21.936,13.189,-28.702,-21.467,22.198,-28.006,-17.026,-11.092,-33.731,-18.223,-14.350,5.348,26.245,-7.097,-3.055
-7.486,-22.542,10.329,-32.948,-30.904,17.765,-32.951,-25.057,-7.296,-28.997,-23.242,-25.708,-3.631,19.464,-16.736,-2.461
-16.797,-28.493,4.603,-19.844,-30.461,17.840,-38.680,-28.080,-9.316,-30.628,-25.379,-17.988,-6.089,19.490,-15.780,-2.251
-7.790,-26.767,7.755,-21.477,-25.645,19.689,-45.319,-31.740,-0.991,-31.499,-21.205,-20.364,-4.939,21.180,-19.999,-3.255
-18.683,-26.096,4.130,-19.252,-21.079,15.124,-38.905,-27.178,0.548,-24.704,-22.491,-17.356,-9.611,7.702,-19.292,-0.835
-11.817,-14.760,0.283,-10.307,-15.380,14.922,-41.105,-28.644,3.015,-13.849,-22.640,-12.148,-9.283,12.589,-15.785,-1.224
-27.506,-4.331,0.800,-8.211,-19.494,16.282,-31.914,-29.943,7.267,-14.728,-26.695,-10.767,-18.293,5.518,-20.620,11.046
-20.259,-14.019,-3.923,-15.391,-14.575,3.223,-42.292,-37.782,10.599,-13.661,-24.335,-2.175,-20.943,3.771,-20.464,11.303
-25.720,-6.735,-3.799,-13.513,-6.961,-3.490,-43.689,-46.640,6.095,-15.848,-26.862,-2.968,-20.472,2.976,-25.997,16.774
-38.889,-2.913,-5.357,1.376,-8.757,-10.713,-37.234,-45.074,8.141,-15.150,-23.151,-1.445,-23.421,-10.296,-34.003,19.506
-39.472,-8.229,-11.877,2.397,2.498,-15.267,-34.651,-37.811,10.952,-7.158,-24.822,1.023,-24.380,-16.230,-31.150,19.348
-44.670,2.470,-9.397,3.184,0.207,-13.421,-37.864,-37.990,12.927,-9.029,-15.792,9.893,-22.490,-16.691,-26.032,18.871
-46.191,8.289,-13.658,4.778,4.544,-16.010,-37.429,-41.486,4.976,2.631,-17.271,2.357,-26.271,-17.024,-25.662,25.148
-48.605,14.566,-16.955,5.235,11.476,-14.835,-32.308,-41.283,6.953,8.822,-18.919,6.776,-29.457,-22.754,-24.704,29.549
-42.867,20.630,-17.646,11.411,19.040,-20.441,-30.739,-37.449,4.677,10.581,-20.361,15.992,-27.754,-23.572,-24.935,27.703
-42.995,17.976,-22.307,20.842,15.272,-12.878,-34.648,-37.413,4.854,5.211,-14.563,21.482,-30.144,-27.167,-33.252,41.399
-45.027,13.515,-22.648,20.150,21.160,-11.760,-24.685,-42.551,7.819,16.734,-10.355,24.250,-37.615,-39.128,-23.025,40.638
-43.280,14.034,-19.549,21.842,24.954,-17.373,-26.183,-37.147,12.734,16.374,-3.747,23.868,-28.571,-38.947,-23.850,41.112
-52.713,12.345,-32.813,29.873,33.475,-21.321,-21.491,-33.267,11.206,25.910,-2.105,24.171,-28.629,-34.473,-14.983,37.074
-45.510,22.416,-33.085,22.005,25.667,-19.708,-23.423,-30.553,14.703,35.167,2.144,31.929,-30.691,-35.494,-8.505,36.675
-38.204,14.665,-30.236,23.988,30.587,-28.907,-18.231,-32.674,10.754,37.638,6.900,23.666,-29.641,-39.445,-5.769,42.805
-42.693,23.944,-27.413,14.473,31.981,-30.295,-21.024,-22.232,15.534,34.396,17.516,18.859,-33.242,-40.674,4.003,33.539
-46.062,27.237,-29.260,15.951,32.405,-27.048,-7.663,-34.670,13.417,27.641,9.648,16.786,-25.395,-43.046,1.506,33.510
-37.333,30.874,-23.648,26.764,22.587,-21.895,-4.961,-24.077,7.431,16.004,8.113,16.259,-15.404,-39.773,16.610,31.313
-33.460,28.159,-19.574,16.934,24.644,-24.042,-1.437,-28.414,2.387,8.946,9.834,20.138,-20.034,-27.202,11.976,35.640
-37.121,14.050,-18.346,16.045,17.277,-20.410,-0.573,-13.416,10.001,12.123,18.769,27.002,-17.445,-40.189,6.670,28.999
-33.325,28.290,-16.403,24.363,35.030,-20.185,-2.278,-7.857,7.549,11.804,16.302,15.569,-10.645,-39.152,14.621,23.152
-32.501,19.549,-14.681,28.105,22.950,-10.471,1.762,-1.522,4.047,8.862,17.300,17.841,-5.466,-32.246,25.128,27.582
-28.666,20.850,-16.926,29.807,24.574,-8.082,0.095,3.916,-4.449,16.584,18.929,13.950,-11.506,-31.967,30.118,26.447
-12.328,22.391,-14.640,30.533,28.543,-4.964,-0.135,9.909,-5.896,2.387,19.607,13.804,-4.968,-28.792,25.696,13.298
-2.134,16.272,-6.586,24.443,29.310,-3.468,8.337,3.609,-9.832,4.929,21.427,14.639,-1.251,-23.755,29.409,7.409
-6.747,19.809,-1.988,20.580,27.631,-11.099,15.467,7.758,-14.446,4.008,19.483,12.255,6.648,-22.708,33.094,14.229
-10.978,13.681,-6.990,12.133,25.804,-7.925,7.735,15.222,-14.980,4.639,14.018,6.938,13.653,-23.035,30.280,5.902
2.954,9.680,0.157,8.417,22.216,-4.646,7.715,16.558,-15.242,-3.115,9.975,3.522,19.110,-11.397,31.687,-5.636
0.062,3.140,4.561,7.714,19.371,0.736,8.417,9.202,-14.528,3.091,9.995,-1.909,18.098,-7.715,29.619,-14.701
-2.374,5.013,1.014,-3.202,26.868,-0.803,17.845,6.262,-16.775,-1.321,9.641,-4.021,23.309,-7.499,34.721,0.624
12.304,-2.660,3.890,-9.646,25.556,12.552,13.666,12.779,-19.828,-7.858,7.098,-1.314,19.674,-4.095,28.217,-11.810
10.790,-4.502,2.565,-16.522,14.774,14.383,4.210,7.229,-24.112,-29.878,4.241,-14.077,16.800,1.777,18.856,-10.020
0.443,-9.573,5.357,-12.114,9.960,16.581,13.847,9.628,-24.405,-22.290,-4.104,-11.020,17.400,6.139,16.978,-18.195
3.241,-0.382,8.245,-14.136,4.611,15.104,6.308,11.777,-33.379,-21.376,-8.504,-15.475,21.548,-0.892,20.999,-26.668
5.161,-16.185,5.386,-13.865,-4.082,22.104,5.367,4.247,-30.001,-32.682,-11.973,-13.702,28.401,5.063,25.191,-21.014
16.335,-28.314,9.350,-17.885,-9.053,17.949,-6.105,4.066,-27.535,-54.932,-12.473,-27.022,29.254,12.333,24.921,-27.958
14.707,-36.847,14.895,-19.800,-8.232,31.255,-5.121,-3.806,-31.297,-54.423,-7.316,-24.310,25.582,11.106,20.173,-24.006
16.452,-28.083,11.883,-25.723,-11.455,31.216,-2.515,-2.359,-29.744,-46.321,-12.558,-28.286,14.060,20.964,15.775,-25.096
17.096,-37.847,8.481,-30.892,-13.519,26.063,0.132,-6.369,-27.430,-45.929,-17.152,-32.301,16.593,17.161,12.198,-30.584
15.197,-35.036,11.226,-39.888,-23.481,25.309,-0.665,-10.901,-29.528,-45.506,-14.095,-22.261,13.014,15.144,6.504,-24.395
6.105,-39.884,14.107,-47.003,-20.338,23.725,-4.473,-7.107,-27.758,-49.981,-14.106,-21.432,4.280,19.731,3.210,-18.196
10.495,-38.147,13.707,-43.295,-21.021,11.050,-16.877,-10.203,-27.343,-52.645,-12.268,-27.856,2.476,24.714,8.271,-17.065
6.951,-32.317,14.959,-38.554,-25.249,22.202,-22.748,-21.006,-23.822,-52.269,-14.702,-34.598,2.407,13.482,3.706,-9.819
-1.579,-28.759,18.033,-45.429,-25.010,11.091,-19.816,-23.371,-25.958,-48.148,-11.210,-30.931,-0.457,17.373,-7.075,-13.906
-5.465,-33.252,17.154,-42.670,-20.658,20.586,-23.038,-27.917,-17.570,-48.077,-19.188,-29.057,-2.597,14.965,-18.625,-9.623
3.270,-39.758,16.481,-38.394,-30.890,26.992,-18.456,-31.950,-20.584,-48.400,-22.227,-26.642,-9.729,15.226,-18.268,-10.375
-6.842,-36.601,15.959,-34.819,-36.217,20.361,-19.927,-28.646,-19.662,-46.321,-29.201,-24.331,-12.706,14.056,-11.379,-0.188
-7.414,-40.463,10.835,-25.874,-38.190,14.716,-31.289,-27.942,-18.540,-39.341,-28.573,-21.268,-11.443,8.988,-24.628,3.564
-5.311,-39.886,5.703,-22.206,-37.391,7.858,-33.161,-42.690,-16.299,-40.653,-36.904,-9.974,-19.623,-0.985,-24.032,5.076
-16.878,-49.098,3.274,-23.154,-30.567,8.336,-34.053,-34.122,-11.532,-37.091,-42.232,-13.826,-22.368,-2.376,-17.945,6.364
-17.638,-32.131,3.260,-15.386,-32.258,1.797,-32.866,-35.657,-6.920,-30.851,-31.805,-12.659,-26.670,0.382,-24.188,15.872
-19.661,-33.986,2.786,-20.726,-31.337,-1.615,-31.744,-37.167,-9.233,-34.247,-29.478,-8.208,-26.288,-8.639,-27.904,18.769
-25.031,-30.852,-0.296,-10.329,-33.435,-3.016,-30.437,-36.743,-2.654,-27.624,-23.390,-4.294,-31.206,-4.983,-35.026,19.598
-26.436,-20.366,-3.126,-11.678,-28.606,-12.985,-28.208,-35.277,-5.506,-43.461,-27.073,2.497,-31.605,-10.294,-26.656,13.392
-25.015,-29.063,-5.929,-8.019,-19.835,-14.337,-26.389,-40.256,-1.071,-19.895,-25.895,3.059,-31.576,-23.089,-34.745,14.933
-36.359,-23.366,-10.950,-6.841,-14.734,-22.332,-30.323,-46.962,0.750,-9.586,-33.528,0.921,-27.463,-22.411,-36.872,16.161
-35.456,-12.759,-14.732,-5.854,-7.397,-22.483,-19.233,-46.356,-1.821,-16.669,-29.395,1.550,-26.266,-23.312,-34.392,22.011
-45.568,-10.879,-13.417,-5.940,-6.742,-10.685,-20.070,-37.912,2.621,-17.330,-25.389,4.524,-32.257,-27.719,-29.795,41.737
-43.055,-5.222,-19.424,-2.567,-6.297,-12.433,-28.857,-37.647,4.312,-14.354,-30.900,8.648,-33.225,-31.214,-30.892,41.418
-49.662,9.923,-16.856,1.267,-7.403,-17.330,-27.488,-42.918,0.865,-5.515,-22.399,12.313,-38.957,-28.395,-21.565,38.590
-47.215,5.677,-20.809,-1.284,2.524,-13.947,-23.889,-43.870,5.469,-12.048,-17.743,16.806,-39.382,-29.889,-19.931,33.099
-50.093,4.087,-20.225,8.283,5.136,-20.727,-20.073,-33.349,6.681,-8.617,-15.393,11.847,-36.581,-33.397,-20.867,37.507
-53.718,12.705,-22.022,7.984,12.653,-22.891,-15.208,-36.769,3.546,-0.689,-9.460,20.176,-33.982,-36.075,-20.625,44.513
-59.750,23.047,-26.157,19.853,18.498,-32.485,-13.403,-33.091,6.795,-5.938,-8.028,25.004,-30.793,-38.369,-14.759,37.905
-52.567,30.620,-24.133,19.330,27.042,-27.375,-17.807,-30.151,7.678,-2.253,-2.514,25.704,-24.127,-38.923,-11.971,36.467
-43.516,33.847,-26.205,18.495,35.331,-31.631,-11.545,-26.783,6.056,6.863,3.494,18.454,-20.338,-48.030,-8.334,31.543
-45.022,31.767,-30.654,24.049,34.431,-20.954,-12.776,-26.888,0.903,19.641,5.052,14.857,-20.010,-47.343,5.324,37.311
-36.026,39.763,-26.185,30.642,26.374,-17.139,-9.787,-19.103,-2.967,13.392,4.496,17.859,-16.328,-48.634,12.324,28.734
-24.346,39.721,-31.169,34.352,34.402,-24.929,-8.660,-17.635,2.811,17.656,1.090,20.338,-15.953,-46.517,11.834,33.289
-23.129,35.743,-26.868,29.072,36.852,-22.945,-0.406,-15.155,3.562,10.491,-2.026,20.057,-12.234,-44.046,8.084,38.271
-23.089,30.220,-22.109,30.687,37.324,-19.791,7.471,-16.342,5.535,15.702,7.644,20.236,-14.317,-39.064,13.910,35.312
-20.703,23.620,-22.972,30.182,32.296,-19.758,13.265,-7.646,1.925,16.950,12.893,17.144,-10.060,-35.100,10.656,26.202
-25.701,21.237,-22.774,20.395,38.262,-6.602,11.022,-9.210,-4.515,15.845,12.033,22.613,-2.400,-40.107,21.430,23.296
-27.351,15.006,-19.122,19.700,36.929,-11.805,12.450,-8.810,-7.028,17.914,11.622,19.221,-4.965,-42.857,26.997,14.611
-19.486,10.397,-17.986,14.269,38.622,-4.436,18.343,-1.545,-5.057,9.783,8.131,11.438,-1.261,-38.856,22.968,16.501
-18.175,12.568,-10.292,18.748,38.426,-1.271,20.878,11.103,-10.357,1.430,17.542,17.043,4.397,-35.832,37.953,17.380
-20.151,5.204,-6.166,14.013,27.707,1.851,21.643,15.285,-13.751,6.923,13.846,11.919,10.929,-28.605,35.911,13.894
-20.729,3.618,-2.110,13.858,29.780,11.979,27.736,16.600,-20.552,1.830,13.449,4.781,8.830,-15.347,34.777,8.114
-10.336,7.151,0.700,14.406,29.291,14.052,22.836,21.127,-20.806,10.581,11.818,-2.656,10.162,-14.392,32.150,-2.011
-9.082,11.028,5.080,19.470,21.917,17.333,23.173,25.415,-23.262,1.140,3.777,-4.878,13.429,-8.513,26.048,-5.058
4.013,2.796,7.926,9.191,12.957,15.247,21.514,15.361,-21.334,1.003,8.169,-3.347,14.427,-13.725,34.142,-11.330
13.647,-2.732,3.440,-0.736,13.805,20.661,17.466,10.566,-25.961,6.443,11.115,-9.665,16.191,-4.383,35.496,0.195
6.577,-13.218,2.701,0.510,12.876,15.245,14.695,12.910,-24.823,0.404,7.466,-9.640,25.920,9.628,37.347,-12.662
8.030,-6.942,10.677,-10.561,12.016,26.155,11.864,4.849,-26.794,-16.328,6.601,-13.737,33.435,10.145,34.195,-10.509
18.608,-9.014,15.122,-7.077,11.130,31.210,6.409,19.955,-28.399,-2.925,4.580,-18.498,28.401,11.733,28.303,-10.110
21.197,-16.770,15.645,-12.909,9.097,23.647,11.148,13.579,-25.126,-13.564,2.190,-22.235,27.676,7.217,33.313,-16.472
13.054,-18.311,21.940,-14.844,12.721,27.619,8.171,15.817,-26.855,-16.712,3.753,-19.691,35.149,9.283,28.198,-12.940
13.427,-15.229,21.711,-5.861,16.445,27.425,0.940,11.234,-29.355,-26.800,4.851,-25.964,36.135,20.243,26.921,-22.368
13.614,-20.104,23.319,-14.856,2.695,28.755,-3.141,13.778,-32.403,-23.614,1.303,-21.212,29.586,16.230,23.703,-23.264
9.580,-28.152,23.979,-20.485,-11.809,30.554,-3.493,17.773,-30.757,-27.883,-7.001,-28.047,31.393,17.284,16.661,-26.550
24.707,-27.748,22.156,-19.937,-15.896,30.407,-2.928,17.345,-34.079,-25.254,-5.499,-42.480,24.902,27.557,5.714,-18.922
23.272,-22.953,22.968,-22.872,-11.763,31.032,-12.620,9.997,-31.462,-19.276,-2.744,-24.464,28.857,24.112,12.446,-12.474
19.705,-18.170,24.556,-18.905,-10.134,32.654,-10.716,0.350,-26.355,-18.780,-9.089,-25.953,24.799,29.101,15.050,-7.500
18.857,-16.069,22.206,-17.629,-7.972,28.835,-13.426,-5.134,-28.770,-22.202,-8.657,-27.362,18.597,33.798,0.157,-10.663
20.239,-17.397,24.582,-26.673,-2.643,39.026,-16.459,-8.610,-16.514,-28.348,-18.822,-31.233,20.920,32.800,-9.625,-5.461
17.393,-9.346,25.418,-26.131,-13.993,39.119,-17.671,-13.774,-19.446,-19.773,-19.779,-31.338,14.773,27.470,-7.706,-12.697
10.425,-13.502,29.109,-26.804,-3.350,33.239,-13.868,-13.136,-15.944,-17.346,-17.855,-29.936,11.324,29.489,-6.114,-8.906
5.992,-16.611,30.192,-16.496,-15.574,26.990,-22.916,-18.201,-9.930,-24.034,-11.173,-26.034,9.941,20.254,-8.010,-6.484
3.929,-9.815,25.696,-17.080,-13.627,20.392,-31.217,-22.874,-9.328,-25.738,-12.418,-12.056,3.583,22.822,-10.071,2.814
4.905,-11.045,24.968,-18.598,-14.219,14.762,-33.375,-22.711,-9.278,-22.500,-15.649,-11.509,-2.797,20.692,-8.765,0.252
-1.828,-13.743,18.526,-13.789,-19.575,21.466,-31.899,-21.953,-1.797,-15.273,-19.588,-1.565,2.545,17.974,-17.743,4.685
-7.879,-19.772,11.015,-18.931,-15.473,18.990,-34.583,-28.005,-2.601,-11.953,-23.384,0.241,1.107,14.257,-17.079,12.295
-10.113,-11.260,12.205,-4.533,-10.860,12.274,-25.098,-35.301,6.171,0.288,-14.891,-1.202,-2.236,1.002,-10.165,3.745
-10.766,-11.147,11.925,6.456,-12.478,7.132,-33.851,-38.044,8.173,1.074,-13.332,1.448,-10.952,2.197,-9.314,5.408
-14.889,-14.779,11.349,6.666,-6.251,0.651,-28.606,-32.421,6.664,9.434,-11.699,10.083,-12.987,-2.073,-12.820,18.615
-12.494,-5.040,10.175,18.525,6.062,2.619,-29.452,-31.688,17.822,0.926,-16.872,14.144,-9.307,-3.215,-14.954,18.859
-18.183,1.971,1.743,18.425,8.002,-7.571,-31.461,-35.103,17.586,2.918,-15.367,14.273,-17.309,-4.310,-15.076,18.754
-19.730,6.745,-2.823,19.167,11.240,-2.435,-25.557,-30.020,13.860,11.551,-5.625,10.419,-14.753,-9.480,-8.064,30.542
-28.041,15.695,-2.585,17.353,11.995,-0.988,-20.473,-37.171,14.355,5.660,-5.488,19.704,-13.792,-12.187,-6.136,21.692
-27.628,18.265,-3.756,23.510,16.212,-2.551,-28.814,-35.283,16.881,14.112,-5.140,27.852,-18.235,-12.066,-0.611,24.037
-28.791,21.706,-10.704,34.606,26.874,-1.441,-24.492,-31.228,26.088,26.126,2.186,30.371,-17.195,-8.978,3.852,33.315
-34.193,29.564,-16.768,32.253,20.828,-14.096,-24.340,-36.636,20.390,27.578,-0.916,31.082,-14.075,-21.032,-5.374,34.417
-32.364,33.430,-18.727,28.303,28.122,-14.221,-22.282,-28.790,18.647,24.897,3.123,36.774,-19.381,-29.194,-2.852,36.747
-28.981,42.471,-21.475,31.958,34.659,-10.939,-22.993,-23.073,20.440,29.244,3.970,37.993,-16.298,-24.435,-2.151,35.846
-27.067,39.681,-21.776,32.243,29.651,0.001,-18.593,-26.038,20.587,31.456,7.819,30.969,-16.053,-38.155,-2.575,32.668
-21.123,45.880,-20.419,31.282,36.280,-4.361,-18.850,-18.924,19.262,40.612,12.094,34.740,-17.633,-33.004,9.795,28.467
-25.786,44.643,-19.760,32.910,33.048,-5.094,-14.042,-22.154,19.335,38.886,18.754,37.307,-16.034,-20.176,11.374,42.435
-23.270,42.476,-18.506,34.224,29.220,4.827,-9.606,-15.959,21.616,36.238,19.063,43.681,-8.616,-31.166,12.765,42.817
-20.424,44.672,-18.142,43.218,32.236,-4.049,-7.708,-11.350,18.596,39.151,20.083,53.568,-5.998,-28.971,19.522,32.689
-14.682,48.544,-20.125,40.953,36.759,-3.660,6.567,-8.991,17.280,44.292,27.631,46.107,-2.341,-35.722,17.865,36.229
-11.566,41.924,-17.632,34.273,41.031,-4.842,5.207,-8.381,7.673,38.582,28.516,43.978,2.196,-45.064,27.688,31.525
-6.760,37.742,-13.261,47.323,39.857,-3.558,5.550,-5.948,16.757,41.842,19.897,44.691,2.006,-40.855,27.787,27.637
-5.767,44.363,-15.759,43.633,46.573,4.411,10.500,9.191,10.067,36.460,19.918,42.677,1.411,-36.249,24.826,29.949
-12.058,40.076,-16.040,50.792,46.420,4.404,11.084,11.189,8.958,32.152,27.092,44.984,12.863,-19.544,28.909,26.064
-5.370,31.348,-12.392,48.392,41.016,-6.861,17.073,16.209,11.564,34.161,27.252,44.107,17.885,-14.198,28.780,19.987
0.604,28.723,-5.383,48.096,40.725,5.795,16.471,12.874,2.230,37.286,32.311,39.554,16.471,-14.743,35.891,24.126
2.421,36.801,-3.668,42.378,49.652,4.890,16.334,20.889,1.847,35.733,33.689,31.986,16.199,-17.696,37.535,12.550
2.240,27.235,-5.437,40.232,39.482,6.613,23.733,27.473,6.733,33.945,34.880,28.414,22.013,-18.529,39.910,14.335
10.634,15.893,-0.226,28.490,38.178,4.634,22.030,31.028,4.881,31.543,36.180,23.752,28.224,-11.888,42.552,13.796
13.624,23.825,-1.931,23.590,32.962,7.330,20.541,33.607,-6.014,29.570,31.101,24.529,37.692,-2.444,46.514,2.600
26.097,8.890,3.063,19.216,41.483,12.902,21.875,30.075,-4.022,26.222,30.527,14.854,39.391,-2.369,37.103,2.010
28.936,9.633,9.228,15.018,42.272,21.691,29.579,27.466,-1.597,18.013,26.182,13.279,38.374,1.247,44.999,6.386
23.747,3.126,11.356,13.348,27.906,25.318,28.504,33.874,2.176,14.363,25.881,8.288,43.266,4.170,41.758,-0.136
24.220,-3.378,11.289,9.014,21.999,21.044,21.320,28.071,-11.255,4.173,19.013,2.496,46.266,9.398,41.685,5.935
20.779,3.456,13.418,7.964,21.874,26.416,20.544,31.159,-12.261,2.545,15.161,-2.770,45.484,12.147,25.985,-9.700
22.363,-7.439,13.887,8.426,22.526,26.921,15.778,32.082,-16.477,8.958,17.007,-1.770,38.915,10.546,29.810,-7.390
30.453,-2.746,22.664,1.716,11.440,28.311,13.591,24.916,-17.121,2.752,15.558,0.030,34.919,9.430,35.322,-16.617
36.911,-14.796,27.779,-10.000,4.733,26.306,12.110,25.091,-19.675,-4.884,17.492,-8.427,33.515,17.671,27.445,-15.097
34.934,-10.097,32.360,-8.582,-0.791,31.873,12.524,23.134,-14.334,-2.855,14.252,-2.311,36.998,16.514,32.086,-19.417
34.159,-3.120,30.328,-14.347,-0.930,20.711,7.596,24.535,-20.681,4.570,12.904,-3.757,41.432,21.676,22.191,-22.505
34.322,-14.648,26.933,-5.747,-7.971,24.234,9.678,19.656,-25.983,2.778,4.738,-9.085,31.223,26.393,19.053,-2.191
32.685,-17.892,28.289,-7.475,-19.544,28.884,2.125,2.050,-23.601,2.254,4.613,-10.436,35.305,32.380,16.231,-4.893
42.020,-9.548,32.260,-4.469,-12.989,29.909,-0.985,9.822,-20.054,-11.579,5.168,-20.144,25.348,33.031,15.370,-11.066
36.468,-16.432,28.840,2.567,-18.746,37.233,-5.108,11.079,-18.355,-11.597,3.412,-17.861,22.335,33.241,4.927,-1.521
36.816,-25.631,34.705,-9.148,-14.695,35.560,-7.180,7.325,-18.945,-9.870,-11.634,-16.517,27.754,43.550,5.420,-3.749
37.583,-28.701,30.688,-17.086,-10.802,28.509,-8.567,3.273,-19.800,-4.523,-11.521,-12.776,20.097,40.492,5.690,-4.506
37.395,-22.317,29.483,-21.975,-10.616,27.643,-25.830,14.725,-13.480,-13.180,-8.944,-14.676,17.648,43.163,6.048,-11.664
28.561,-22.852,25.675,-4.932,-17.054,32.612,-11.606,6.545,-17.598,-17.763,-7.951,-17.521,12.745,32.729,3.883,-7.281
19.968,-25.126,23.401,-14.239,-16.855,28.610,-17.156,-1.671,-14.548,-6.305,-14.475,-18.493,12.790,25.095,-4.492,4.515
10.191,-21.916,23.783,-22.420,-19.376,34.500,-24.652,-17.203,-13.128,-8.231,-18.993,-19.376,3.367,23.736,-6.294,4.061
10.775,-18.101,22.041,-19.367,-14.414,26.049,-29.898,-13.671,-12.042,-11.052,-10.124,-14.380,7.801,27.208,-0.847,13.300
13.208,-16.533,21.248,-13.177,-13.883,15.312,-27.484,-22.296,-3.331,-5.605,-12.354,-7.067,5.552,24.739,3.825,5.022
5.256,-11.964,20.316,-6.512,-24.696,15.925,-25.222,-22.156,-4.031,-12.197,-21.580,-7.184,1.175,18.054,-2.761,5.641
7.976,-3.017,14.928,3.920,-14.655,8.740,-35.997,-24.622,3.257,-6.693,-22.583,0.219,6.865,13.731,-12.635,14.096
2.771,0.245,18.138,-0.126,-8.228,1.191,-39.877,-30.504,4.602,-4.072,-23.377,-3.297,-4.460,7.634,-23.871,25.482
1.518,1.518,20.016,4.205,-1.946,2.559,-32.679,-36.769,2.171,-5.133,-16.900,-3.486,-13.986,15.792,-20.204,23.103
-1.810,5.273,9.740,13.300,-0.155,-11.021,-36.279,-33.989,7.152,2.307,-19.578,0.257,-18.130,16.543,-20.943,28.478
-8.832,3.896,2.036,8.581,4.289,-10.429,-27.538,-40.049,10.258,10.642,-11.038,6.610,-25.098,6.984,-23.820,28.523
-10.094,1.766,2.753,16.914,7.191,-8.960,-27.678,-29.706,9.507,11.695,-16.482,17.689,-19.071,4.596,-28.598,40.911
-16.352,7.676,-2.024,19.619,9.544,-6.999,-29.059,-29.507,12.052,8.061,-8.864,12.543,-27.371,4.260,-13.660,40.678
-13.835,19.727,-9.489,25.025,10.621,-12.751,-26.520,-31.187,13.781,10.197,-10.419,16.691,-33.681,0.621,-20.628,33.915
-25.128,17.390,-7.973,27.569,24.407,-18.385,-29.497,-31.778,18.000,13.419,-9.062,26.953,-24.417,-5.377,-7.024,46.383
-17.803,19.665,-10.355,26.781,32.332,-26.893,-26.957,-36.119,14.915,27.676,-0.090,17.049,-23.516,-15.035,-17.533,50.962
-12.543,21.763,-11.586,33.761,24.312,-24.059,-26.006,-33.984,24.593,22.658,-1.381,16.600,-21.819,-23.354,-9.821,51.987
-23.175,31.234,-7.090,34.746,31.653,-26.957,-24.908,-38.970,20.292,33.316,-1.197,21.364,-17.188,-19.990,-15.704,52.345
-24.754,28.773,-6.380,28.386,37.859,-30.051,-21.263,-33.474,20.355,34.636,-0.196,19.209,-18.805,-22.595,-14.743,47.599
-21.187,27.770,-11.673,32.886,37.967,-27.708,-21.395,-33.157,21.011,39.135,4.857,27.855,-14.262,-25.839,-13.317,38.081
-22.766,26.366,-16.090,32.672,36.468,-29.629,-19.130,-24.160,17.211,33.953,0.907,25.419,-19.070,-32.722,-8.198,35.834
-25.007,37.287,-21.206,36.358,37.253,-22.005,-18.159,-26.359,13.747,35.117,9.674,28.854,-16.447,-31.220,-0.913,26.729
-29.879,38.476,-20.336,34.705,41.007,-20.228,-18.466,-26.811,18.909,39.942,11.822,31.041,-13.358,-29.908,-2.265,30.861
-21.475,33.284,-26.718,40.293,32.139,-19.381,-6.988,-17.817,9.002,22.251,20.300,27.139,-14.441,-28.695,0.734,39.825
-20.266,36.708,-21.627,32.885,28.950,-26.293,-6.585,-13.544,12.097,33.601,17.597,34.196,-6.276,-31.423,8.350,26.276
-15.189,30.897,-20.947,40.245,32.294,-22.213,-9.752,-1.866,13.181,25.168,28.815,28.650,-7.485,-28.828,11.897,13.599
-15.861,25.661,-15.551,39.789,42.157,-18.151,-4.513,2.714,12.023,18.602,29.580,28.341,-1.779,-15.684,14.069,17.589
-13.275,33.803,-13.725,32.719,45.342,-15.582,-1.134,7.508,12.622,21.182,27.358,25.089,0.285,-19.238,17.308,26.459
-20.569,32.016,-15.895,34.020,54.809,-15.056,4.381,4.137,-0.987,16.664,22.470,25.728,-1.184,-14.626,28.663,16.303
-5.197,24.487,-10.586,29.164,41.331,-13.755,7.506,5.841,-6.823,17.156,25.177,26.907,6.086,-12.022,31.545,13.489
-5.232,21.072,-7.272,21.543,41.701,-10.312,11.689,0.940,-4.662,19.183,29.352,23.110,14.893,-13.321,34.794,5.039
-6.959,21.452,-5.744,18.421,45.664,-14.379,21.153,3.462,-6.528,19.849,21.856,14.984,23.375,-13.680,40.768,-2.078
2.166,16.322,-5.379,10.015,36.606,-9.605,23.899,8.832,-7.798,25.214,17.857,12.788,20.619,-7.401,30.854,-7.890
-2.415,12.017,-1.852,8.065,31.147,-6.418,17.892,27.725,-10.143,17.869,13.878,6.355,24.935,-1.597,33.427,-3.962
6.038,13.161,-2.668,2.362,24.327,4.037,15.472,24.635,-17.409,13.005,20.975,-4.461,26.457,-11.048,28.140,-11.118
1.580,11.469,3.370,3.468,16.553,5.431,10.691,22.061,-18.925,-2.905,22.839,-0.107,28.587,-4.405,31.768,-6.067
3.289,1.585,2.657,-3.005,11.341,5.535,6.034,24.130,-21.130,-19.983,12.169,1.184,30.697,-5.152,37.263,-7.882
14.726,-3.703,6.981,-6.633,13.619,-5.758,6.535,21.657,-18.144,-15.229,15.096,-1.722,27.355,8.844,31.951,-8.801
8.230,-0.944,10.551,-11.575,0.834,0.698,8.693,18.916,-23.217,-21.295,13.688,-5.321,33.199,13.221,30.371,-27.739
7.597,-1.063,13.561,-13.122,10.387,5.723,9.509,18.693,-22.855,-19.219,9.903,-9.062,30.263,16.874,24.766,-28.561
20.184,-6.388,14.608,-16.313,0.936,10.376,5.564,25.624,-31.984,-30.014,7.634,-10.898,24.236,19.212,17.997,-27.465
23.907,-8.472,11.014,-31.989,-2.259,14.057,2.289,22.181,-29.204,-23.180,5.525,-18.047,33.046,18.770,13.258,-32.606
15.319,-16.177,21.640,-29.470,-14.298,9.751,0.515,16.722,-31.894,-20.930,-2.435,-23.129,32.409,24.729,11.464,-25.062
17.529,-25.303,19.569,-38.508,-3.783,12.431,-4.936,22.252,-35.029,-28.434,-4.705,-22.393,25.224,17.439,2.366,-26.035
23.970,-27.527,24.963,-33.993,-14.979,16.686,-10.918,18.047,-30.874,-32.567,-4.923,-29.587,20.290,24.043,3.277,-31.368
21.263,-24.202,25.257,-33.176,-11.221,21.695,-10.652,15.053,-40.591,-30.995,-1.137,-26.317,23.805,28.192,6.503,-30.395
19.605,-28.765,23.674,-32.677,-24.349,18.098,-21.274,0.185,-35.139,-27.659,-9.444,-25.284,16.230,29.615,2.445,-28.428
25.847,-33.107,24.671,-36.316,-36.708,14.652,-17.366,2.037,-27.443,-33.806,-21.619,-20.226,12.660,21.358,-0.630,-28.660
24.015,-30.935,20.707,-36.578,-34.297,13.714,-28.986,-0.751,-28.855,-19.776,-26.457,-28.159,5.116,26.535,-9.510,-29.701
24.188,-31.890,16.035,-36.297,-34.423,9.987,-26.774,3.994,-26.154,-16.415,-24.200,-33.472,12.350,21.807,-21.506,-22.444
15.369,-19.865,19.005,-38.701,-35.227,8.705,-32.985,-6.066,-29.001,-30.566,-21.535,-26.374,13.970,23.221,-31.091,-24.433
16.814,-20.420,16.120,-42.737,-33.343,4.799,-27.335,-13.069,-24.742,-32.398,-22.716,-27.672,10.943,19.710,-23.270,-19.342
17.567,-25.967,16.310,-35.439,-34.707,6.039,-29.255,-17.002,-18.684,-26.883,-23.918,-30.968,9.076,16.414,-29.518,-16.917
18.536,-24.202,9.633,-27.449,-36.790,4.190,-33.597,-15.562,-17.256,-21.110,-28.614,-33.199,4.715,19.968,-32.217,-13.123
10.336,-23.851,9.932,-30.945,-33.563,10.063,-39.092,-24.718,-10.015,-20.425,-29.537,-21.012,0.551,22.060,-30.956,-12.214
6.364,-26.901,10.743,-28.295,-29.225,-0.152,-42.938,-29.634,-14.051,-10.026,-30.479,-20.922,-6.119,25.424,-39.301,-11.241
-4.759,-3.604,9.996,-24.688,-38.604,-9.152,-39.360,-38.792,-12.212,-21.912,-30.874,-21.221,-11.004,14.872,-31.314,-5.747
-3.937,-3.849,10.018,-27.276,-36.818,-2.088,-37.483,-40.424,-7.755,-18.228,-28.427,-16.024,-7.879,6.745,-24.737,-2.964
4.634,-8.400,6.654,-27.317,-33.760,-13.151,-40.325,-42.657,-8.263,-7.762,-30.968,-16.169,-11.529,1.251,-25.741,-0.411
-6.780,-11.406,0.142,-11.634,-44.785,-12.802,-43.006,-38.742,-1.979,-3.958,-29.928,-13.882,-14.111,5.516,-31.659,-8.553
-10.211,-18.936,-2.221,-8.503,-21.321,-27.246,-39.833,-44.855,3.312,-4.058,-28.662,-8.035,-10.608,1.581,-33.897,-0.980
-9.066,-5.758,-8.900,-6.795,-23.771,-26.730,-48.599,-41.516,0.258,0.630,-24.780,-10.012,-20.747,0.153,-30.847,7.597
-14.457,-7.272,-16.300,-12.348,-26.468,-35.510,-48.924,-41.453,-3.312,6.720,-35.352,-5.246,-25.195,-5.933,-35.286,5.486
-20.318,-6.208,-12.819,-0.952,-15.078,-36.207,-48.726,-43.347,1.130,4.149,-25.197,0.990,-18.996,-1.158,-39.414,6.769
-16.791,-6.662,-13.396,2.097,-14.245,-40.766,-44.527,-44.000,1.193,9.493,-22.495,0.509,-23.247,-12.709,-42.328,7.411
-29.252,-2.778,-18.343,1.791,-0.034,-38.570,-38.078,-45.357,-0.199,17.124,-17.295,5.605,-23.529,-16.896,-35.173,8.393
-31.608,-7.162,-24.525,2.574,0.366,-40.406,-37.028,-37.874,4.607,14.516,-21.233,6.040,-21.174,-20.947,-29.798,14.428
-32.444,0.719,-22.766,8.577,-5.172,-44.418,-33.933,-39.884,1.751,31.373,-21.327,13.394,-19.237,-19.723,-30.689,21.208
-44.381,5.668,-30.243,2.731,5.868,-39.101,-32.687,-29.520,4.844,26.708,-13.283,11.839,-22.208,-22.090,-20.898,20.683
-42.702,10.017,-29.745,-0.289,6.571,-38.759,-26.739,-36.601,5.558,24.201,-17.466,15.448,-21.881,-36.509,-19.194,21.396
-48.011,28.967,-24.973,0.737,14.938,-44.806,-28.178,-39.798,2.363,27.578,-10.833,10.364,-21.781,-48.118,-10.279,19.897
-56.512,21.818,-30.799,20.527,9.364,-36.380,-23.290,-37.014,5.287,35.080,-9.511,12.685,-23.699,-42.385,1.317,19.355
-56.196,18.113,-30.363,6.195,17.489,-31.091,-15.121,-34.483,2.350,30.244,-11.556,20.806,-23.861,-42.674,0.472,17.312
-43.402,18.866,-27.603,16.047,17.683,-38.587,-21.201,-25.860,0.055,24.557,0.007,23.481,-21.159,-35.774,-3.963,16.122
-47.458,16.606,-28.231,20.386,12.181,-33.906,-14.614,-21.284,-1.101,31.943,-1.055,20.398,-13.171,-42.846,-9.051,2.719
-38.715,13.008,-25.109,17.738,17.236,-35.124,-7.615,-25.028,-2.119,28.669,7.995,20.175,-4.745,-42.616,-5.449,6.752
-42.092,18.677,-32.899,19.831,15.671,-33.585,-0.031,-13.546,2.010,25.720,10.604,19.504,-2.774,-37.384,11.406,4.548
-39.416,30.243,-31.032,27.476,16.078,-27.981,6.382,-10.869,2.042,27.767,1.685,20.293,-4.048,-42.439,15.390,-0.269
-26.819,18.940,-28.273,19.632,14.833,-21.987,0.688,1.339,-2.510,28.705,1.838,21.736,-0.013,-42.141,10.819,-8.098
-27.949,21.089,-23.914,19.152,12.960,-18.914,-3.341,-7.046,-7.382,38.224,5.449,26.223,5.605,-35.193,18.359,-15.082
-26.153,18.149,-24.446,13.115,13.220,-15.262,-8.295,-8.944,-11.726,34.471,6.951,26.011,6.288,-33.850,23.936,-10.818
-14.350,14.842,-19.792,11.031,9.484,-11.632,4.371,-8.410,-20.308,32.788,9.598,15.600,9.346,-25.924,19.337,-15.118
-6.867,7.745,-17.352,6.435,15.208,-9.385,4.355,3.810,-21.189,26.009,14.207,15.150,14.787,-16.495,26.631,-24.058
-0.420,4.278,-12.966,4.206,11.895,-12.198,10.898,7.477,-16.934,13.430,5.258,11.049,17.078,-19.295,24.003,-26.397
3.415,6.240,-14.028,5.377,1.103,-8.078,11.566,15.948,-22.888,6.480,4.945,3.862,24.254,-20.024,18.852,-23.314
4.034,0.608,-15.496,9.466,-6.653,0.248,17.757,15.336,-19.296,5.932,5.939,4.203,32.188,-22.966,25.047,-34.024
5.480,2.551,-13.021,6.275,-12.944,-1.923,14.496,13.155,-18.394,12.858,5.766,6.209,35.307,-11.179,26.746,-46.108
7.668,2.675,-4.203,-6.964,-12.283,4.390,14.023,12.800,-18.900,6.282,9.733,-0.530,34.648,-7.045,21.280,-42.037
13.625,-6.128,-4.157,-7.486,-6.552,8.139,22.820,14.205,-18.374,8.016,6.910,-2.811,34.097,-6.508,21.115,-44.892
12.322,-7.432,-5.113,-8.411,-13.302,7.560,10.397,17.483,-29.908,-5.112,6.702,-7.835,32.915,-10.540,14.912,-53.087
13.478,-9.288,0.770,-1.011,-12.132,11.877,4.340,21.608,-20.769,-21.216,6.730,-11.099,37.820,9.796,15.488,-41.599
12.874,-15.965,7.344,-10.555,-27.142,19.946,1.644,17.103,-21.422,-10.913,-0.771,-18.980,38.610,12.145,13.723,-44.057
20.350,-18.775,6.397,-10.171,-25.401,19.354,-2.440,17.128,-28.886,-14.991,-2.578,-26.587,41.736,15.577,12.516,-46.476
22.613,-11.888,11.338,-15.803,-26.721,21.002,2.691,16.624,-27.199,-18.774,-2.471,-25.521,40.045,18.886,8.772,-41.117
12.629,-18.634,9.453,-20.897,-27.007,15.947,2.413,18.195,-24.515,-11.085,-9.427,-26.544,36.515,20.648,3.926,-45.346
18.444,-27.415,8.443,-36.236,-28.154,24.479,-3.952,4.907,-27.135,-9.449,-10.091,-21.287,31.839,22.215,0.904,-44.450
20.523,-25.734,8.137,-31.986,-26.132,22.417,-0.952,4.802,-24.336,-16.867,-14.704,-18.186,35.534,21.397,0.353,-50.636
20.461,-23.905,9.603,-34.628,-29.447,24.099,-2.779,-5.991,-17.503,-16.331,-25.781,-27.084,31.973,27.396,1.357,-28.201
24.011,-35.376,13.707,-37.539,-29.224,31.174,-8.279,-8.972,-19.632,-24.834,-21.871,-26.468,29.116,33.437,1.740,-30.683
19.564,-36.397,15.269,-32.707,-26.915,34.834,-13.202,-15.246,-14.628,-26.773,-21.315,-21.527,22.060,39.450,-2.477,-38.696
25.784,-37.098,12.139,-38.207,-32.917,34.519,-15.699,-20.205,-21.601,-29.978,-20.091,-27.083,15.132,36.876,-2.895,-33.011
16.823,-34.784,13.149,-38.284,-41.372,28.992,-12.230,-23.622,-15.644,-20.964,-20.607,-26.644,18.273,34.895,-9.870,-22.357
33.966,-34.334,12.550,-42.475,-40.056,22.928,-12.432,-25.902,-19.674,-26.146,-28.587,-25.439,18.765,46.238,-15.103,-28.342
34.889,-31.478,11.742,-34.892,-40.178,22.656,-18.972,-24.712,-16.966,-25.599,-30.959,-18.442,10.033,34.967,-17.958,-25.316
29.309,-36.853,12.622,-34.198,-39.408,18.980,-19.400,-23.953,-13.642,-19.486,-32.718,-20.346,10.407,36.207,-23.982,-18.224
6.568,-33.692,12.282,-35.664,-34.762,13.554,-25.538,-31.528,-7.479,-17.456,-32.252,-22.091,9.378,36.429,-21.415,-16.854
-0.137,-27.420,8.261,-28.776,-34.365,15.510,-20.688,-25.998,-7.788,-18.064,-38.721,-17.976,5.538,32.700,-18.338,-14.693
4.197,-27.067,10.461,-24.742,-34.205,13.676,-26.197,-36.633,-2.249,-17.013,-28.665,-20.744,-0.569,34.437,-29.147,-5.855
-1.496,-17.633,4.895,-22.677,-31.456,-0.210,-27.360,-34.056,-5.275,-5.196,-30.342,-8.800,-1.021,22.573,-22.194,-0.312
5.306,-18.797,0.966,-20.467,-31.536,-5.015,-37.095,-29.989,-1.745,-5.261,-37.025,-0.521,-4.161,15.722,-22.740,-5.373
-6.166,-21.199,0.069,-21.370,-29.153,1.545,-37.173,-35.432,7.096,-10.891,-34.654,-1.677,-4.098,14.175,-33.469,1.961
-5.520,-16.950,-0.540,-12.717,-25.377,7.096,-38.171,-37.100,17.260,1.680,-35.152,-1.824,-8.847,17.873,-32.983,4.948
-11.124,-4.803,-4.654,-8.370,-19.555,-3.195,-34.661,-37.801,13.047,9.227,-21.868,3.892,-4.314,11.615,-29.368,15.945
-18.191,-8.073,-7.743,-2.879,-8.970,-11.045,-40.656,-34.395,12.119,13.583,-20.887,2.835,-4.129,-2.057,-32.845,13.726
-18.698,0.921,-9.118,8.386,-0.964,-20.837,-36.296,-43.098,18.036,12.518,-18.513,12.927,-12.968,6.724,-28.686,11.117
-18.364,2.027,-13.711,17.397,3.086,-25.550,-31.754,-43.572,13.236,5.505,-19.661,21.527,-14.297,7.301,-28.617,14.444
-17.179,3.205,-14.038,20.136,-3.153,-16.097,-24.139,-37.392,12.836,6.169,-13.390,24.108,-12.748,6.559,-14.771,22.869
-22.414,1.150,-14.510,9.630,3.146,-15.175,-25.215,-38.792,18.439,16.464,-16.572,25.714,-9.898,1.825,-12.946,23.664
-24.162,7.985,-19.988,14.894,2.480,-27.237,-21.039,-39.744,23.879,22.271,-15.476,21.459,-17.208,-2.394,-10.418,35.043
-35.228,12.436,-20.646,12.193,12.934,-28.907,-23.377,-31.033,26.338,20.545,-8.566,31.559,-14.467,2.152,-5.208,30.717
-27.054,24.149,-26.458,22.966,11.362,-20.564,-25.812,-31.528,24.057,16.016,-10.449,32.192,-10.715,-8.044,-9.192,41.288
-33.150,39.524,-21.461,33.415,20.172,-18.634,-11.556,-24.585,21.529,24.298,-2.913,34.016,-7.741,-13.481,-1.548,43.325
-26.641,39.265,-19.002,32.592,14.989,-24.281,-2.990,-24.959,20.224,41.703,-0.187,41.816,-0.390,-15.742,-2.334,33.173
-24.163,34.743,-18.403,33.417,23.013,-21.133,7.065,-22.077,21.468,32.446,3.102,35.826,2.276,-14.367,5.019,27.058
-11.193,38.822,-18.355,27.988,23.016,-25.517,2.205,-10.246,18.875,25.220,4.839,34.534,-3.596,-15.854,9.279,23.167
-15.919,39.276,-18.019,38.511,26.993,-20.346,7.994,-10.176,15.058,32.551,5.192,41.921,4.488,-11.889,10.012,20.566
-24.327,34.169,-20.977,36.782,35.624,-10.025,8.896,2.369,13.601,37.878,6.334,37.094,4.300,-18.112,14.163,17.928
-23.797,37.216,-15.339,44.206,39.619,-11.030,4.903,15.979,11.473,40.766,5.283,38.388,7.947,-26.622,19.599,22.054
-18.691,37.732,-11.882,36.494,46.580,-8.522,8.043,14.900,14.779,42.641,15.091,39.699,16.244,-18.793,15.693,18.409
-14.637,34.513,-10.670,38.478,43.108,-6.252,17.755,9.763,20.504,43.357,23.606,28.307,15.392,-20.145,21.463,20.956
-0.723,32.034,-8.575,36.987,44.058,-4.301,17.220,17.854,14.033,48.198,19.764,32.751,22.378,-12.763,26.588,16.630
-0.027,20.128,-4.760,32.484,37.529,2.346,16.295,23.700,6.561,46.903,17.156,29.799,29.705,-5.672,28.877,12.243
-0.787,22.850,-3.018,25.369,30.697,4.887,20.673,24.589,5.501,52.073,18.185,28.611,24.057,-6.511,34.413,15.306
-1.685,21.608,-0.253,23.637,31.791,5.527,27.643,30.474,3.655,52.177,14.384,28.749,29.138,-5.553,35.935,12.100
5.439,20.720,0.795,22.427,34.906,10.986,26.353,32.613,0.268,33.277,10.024,28.536,37.418,-6.219,40.530,3.984
11.681,19.171,-2.240,29.087,31.665,13.209,20.558,30.476,-4.829,29.456,15.014,24.714,40.749,-0.231,42.574,-1.317
20.796,12.919,3.256,13.650,38.196,8.645,27.612,34.334,-3.917,37.115,15.940,12.737,42.678,1.324,40.330,3.878
25.689,1.569,0.002,12.789,36.951,23.599,30.280,30.425,-7.253,41.311,16.516,10.342,44.520,3.889,53.202,1.465
21.184,8.789,3.720,12.734,28.783,18.664,28.196,34.325,-12.997,23.447,11.048,10.024,44.841,10.346,59.612,-3.627
29.506,-4.733,7.537,9.071,18.552,24.050,29.630,36.525,-12.749,22.291,14.683,1.319,43.553,15.565,56.224,-6.303
34.917,-7.219,14.868,4.731,17.607,25.518,24.336,46.522,-14.558,15.253,8.775,-6.373,49.436,19.118,46.624,-2.379
28.566,-4.294,17.733,-6.262,9.317,25.456,22.663,46.378,-16.580,9.498,10.543,-13.600,53.698,26.346,39.938,-2.844
42.790,-14.271,19.001,-10.256,5.634,25.626,18.376,41.149,-10.449,-0.978,12.277,-6.746,57.771,28.415,39.904,-10.815
41.104,-7.944,22.272,-5.508,12.062,32.175,13.925,35.414,-7.795,8.965,3.311,-13.021,53.067,26.120,35.608,-11.318
45.315,-5.349,25.231,-10.734,0.612,35.005,20.301,30.394,-14.507,8.367,4.177,-8.919,45.825,28.468,37.213,-7.997
47.296,-6.119,24.682,-7.644,-0.334,39.764,9.261,32.528,-14.190,0.810,-1.915,-10.598,46.429,28.387,31.053,-15.135
41.393,-13.421,27.486,-7.826,6.355,40.440,17.201,27.419,-8.382,6.761,-2.699,-7.338,45.463,36.121,31.999,-11.168
37.022,-10.901,29.189,-15.920,-3.076,36.389,16.874,19.525,-6.070,-1.544,-5.805,-10.205,46.809,30.522,33.228,-20.308
38.625,-20.660,25.099,-12.012,-2.107,30.983,5.947,25.733,-7.763,-2.477,-6.007,-17.301,50.692,31.887,29.721,-14.537
35.978,-22.420,27.927,-18.000,-4.820,31.533,-2.492,16.748,-9.593,1.740,-5.168,-8.219,48.711,36.253,14.451,-6.590
41.589,-26.622,24.461,-10.250,-4.077,32.239,2.116,19.562,-4.594,0.761,-15.695,-10.823,45.102,42.090,11.189,-14.376
38.900,-27.237,23.682,-13.037,6.179,34.571,3.257,14.586,-7.912,-6.331,-17.598,-15.923,40.651,43.232,18.866,-6.398
31.134,-19.715,27.704,-13.081,2.142,37.389,-8.315,8.377,-6.838,-4.034,-17.187,-21.990,34.019,38.709,10.748,-11.569
26.749,-27.790,25.525,-17.434,-6.568,38.801,0.281,5.036,-11.164,-13.174,-19.434,-13.740,27.243,27.020,3.175,-2.578
19.966,-29.404,23.668,-27.422,-10.003,37.777,-6.110,2.756,-6.125,-8.222,-14.138,-7.510,19.921,30.149,7.679,-5.588
21.974,-22.017,28.064,-19.327,-8.145,35.279,-13.272,-5.620,-1.829,-2.843,-16.708,-7.263,18.394,36.073,6.691,4.667
22.099,-19.214,29.703,-17.626,-4.299,27.957,-13.345,-2.670,0.825,4.916,-20.988,-9.441,17.351,26.629,-1.419,8.768
13.772,-12.393,23.862,-13.966,-6.659,25.075,-15.117,-8.193,6.419,-2.475,-18.767,-5.493,9.866,33.439,-2.635,4.752
13.174,-23.503,21.738,-13.994,-13.184,14.499,-16.127,-12.840,2.782,3.541,-10.864,-2.223,8.600,27.978,-2.946,5.282
8.547,-8.685,15.694,-7.375,-9.609,8.189,-23.509,-16.620,1.131,13.489,-13.583,0.532,5.594,18.811,-3.308,14.397
6.937,-5.062,10.021,-12.002,-16.998,2.595,-29.985,-16.272,15.158,13.785,-8.033,5.616,5.886,18.957,-6.489,16.971
2.024,3.188,4.045,-0.596,-17.810,8.857,-28.006,-14.309,15.357,10.833,-11.671,12.613,5.031,18.533,1.501,24.581
4.712,5.985,6.762,3.164,-5.672,-6.110,-24.719,-19.976,19.049,20.874,-10.713,10.878,6.387,20.880,-0.923,25.800
-0.077,7.984,5.909,2.124,-6.205,-4.029,-23.366,-26.523,22.766,17.823,-15.550,16.131,3.505,29.421,-11.821,27.746
0.365,23.870,-0.736,14.156,-0.578,-2.884,-18.926,-34.057,26.057,19.208,-15.645,16.687,-5.416,10.546,-3.144,29.110
-5.892,27.637,1.257,13.470,-1.534,-4.837,-25.723,-30.173,26.988,14.106,-17.861,20.975,-9.538,5.957,-3.193,43.318
-5.263,24.625,-6.534,15.136,14.313,-6.321,-17.262,-22.868,37.105,26.307,-13.274,23.340,-10.127,10.582,-10.434,39.857
-9.338,17.794,-7.467,23.528,22.392,-10.230,-17.880,-21.030,30.813,29.122,-11.834,27.863,-3.561,10.087,-13.729,49.450
-19.207,20.381,-9.097,14.238,19.931,-10.077,-22.617,-12.885,30.194,32.375,-6.998,33.188,-11.385,-4.440,-8.654,45.790
-13.185,17.196,-10.772,18.376,29.988,-9.030,-26.116,-17.749,32.040,46.898,-1.928,32.417,-15.122,-7.209,-4.601,48.621
-11.336,18.030,-11.979,10.180,26.864,-15.750,-31.395,-22.081,40.880,51.148,3.947,36.149,-8.068,-3.893,-7.081,43.676
-11.668,23.007,-13.778,27.650,29.323,-20.003,-19.174,-24.047,35.214,55.342,0.040,36.911,-1.132,-9.340,-3.711,49.921
-23.544,28.600,-15.272,32.293,32.891,-21.001,-12.479,-14.962,37.054,49.240,6.912,37.797,-3.159,-22.082,-0.296,50.541
-17.616,28.495,-16.626,27.456,34.244,-30.963,-5.735,-16.825,31.915,61.474,7.585,35.956,-4.659,-20.182,6.588,58.984
-20.391,27.725,-18.468,39.034,38.898,-25.360,-6.159,-15.704,28.981,61.976,13.744,47.245,-4.309,-19.637,19.821,39.307
-28.787,26.263,-15.951,37.632,40.380,-23.720,-3.337,-21.546,23.845,67.494,17.299,42.398,-1.633,-24.073,23.363,35.832
-17.865,22.583,-13.609,36.003,51.294,-26.019,1.025,-6.085,21.597,65.382,22.604,40.214,-3.117,-29.841,22.894,34.512
-15.740,31.639,-20.946,38.096,45.884,-23.181,1.410,2.858,22.772,67.086,21.396,43.827,-5.222,-27.804,14.770,33.708
-9.383,39.640,-22.727,28.700,44.347,-20.526,10.727,9.816,19.369,62.203,33.372,34.703,-4.474,-20.088,23.302,29.241
-5.919,36.558,-19.202,33.195,36.157,-13.228,14.011,5.505,14.539,53.123,31.832,34.420,1.557,-19.775,26.693,38.419
-1.081,21.616,-14.592,32.140,39.733,-16.833,10.759,16.210,11.839,53.819,31.004,33.624,2.591,-12.215,30.789,32.837
-10.388,28.461,-13.095,33.264,30.618,-17.633,5.312,14.714,8.508,49.707,32.755,35.258,4.990,-13.409,32.370,24.129
-3.031,34.400,-16.438,44.303,37.746,-15.057,9.104,14.841,10.325,50.221,32.884,28.574,12.083,-7.162,35.579,21.109
7.684,32.262,-6.162,28.721,38.856,-9.431,6.933,22.479,6.135,47.028,24.849,25.107,17.421,-13.546,34.455,26.902
1.189,33.070,-1.549,24.236,42.694,-12.275,11.221,34.494,0.698,40.748,28.890,24.040,30.044,-9.077,47.440,27.160
6.189,23.340,-4.315,15.726,35.986,-9.486,16.626,35.198,-4.296,38.674,28.542,26.567,30.057,-5.143,35.769,17.994
17.162,22.422,-6.524,21.966,30.257,-2.805,14.642,35.027,-3.549,33.719,19.060,32.019,26.384,-6.731,33.705,6.980
20.781,24.223,-6.727,17.472,24.798,-4.154,11.474,32.223,-3.188,33.384,19.857,19.652,32.766,-5.511,41.826,8.424
19.724,19.206,-4.730,6.760,13.734,2.712,8.200,38.250,-9.267,33.814,23.685,16.937,34.022,0.698,35.948,3.796
20.527,10.781,5.809,-1.953,5.216,7.271,11.924,42.350,-10.957,19.906,20.900,12.720,28.693,12.793,38.239,-6.522
25.184,12.454,7.743,-6.845,11.016,19.019,5.508,31.929,-9.835,16.895,17.483,13.104,35.540,15.021,39.118,-15.900
30.894,12.943,6.388,-5.096,9.170,16.609,8.640,30.110,-17.891,9.507,20.922,10.872,41.286,19.966,34.738,-19.730
31.365,12.948,12.622,-6.162,9.398,16.275,16.756,36.966,-18.101,-3.698,16.910,-3.714,34.493,20.067,32.937,-20.514
35.859,5.551,19.209,-16.697,8.007,20.847,15.044,36.082,-20.361,-5.617,8.115,-4.780,33.055,16.682,26.644,-19.244
45.946,4.022,17.487,-17.830,-1.000,15.347,7.776,29.093,-19.888,-8.807,13.132,-8.634,32.546,17.083,24.738,-19.963
37.160,-4.234,19.323,-28.206,-2.524,14.949,13.220,20.666,-19.548,-2.701,8.085,-9.205,33.482,27.285,23.593,-16.647
39.706,-7.925,14.636,-22.110,-3.985,22.723,5.807,16.702,-23.639,-10.476,1.469,-17.746,31.295,25.511,13.545,-21.120
38.955,-13.790,19.272,-29.581,-18.138,23.249,2.049,21.558,-20.306,-12.705,-0.491,-22.044,28.147,26.175,14.532,-33.451
33.321,-18.708,18.584,-42.872,-18.860,23.220,-0.565,13.350,-24.475,-19.009,-9.455,-25.363,28.060,32.724,1.781,-33.472
37.527,-20.229,18.536,-36.683,-13.303,25.971,3.145,16.339,-23.278,-19.604,-0.914,-22.802,27.648,31.656,2.619,-26.537
35.014,-10.554,27.726,-21.297,-21.390,26.910,4.269,21.422,-20.598,-13.153,-3.025,-13.786,35.242,46.770,15.823,-28.371
47.081,-3.530,30.580,-16.918,-7.469,26.067,-4.171,19.158,-14.945,-12.045,-6.480,-15.767,26.811,48.458,6.747,-25.798
37.641,-7.991,30.792,-24.137,-8.392,37.916,-2.868,30.561,-9.475,-7.353,-4.685,-15.491,27.888,47.714,7.807,-17.312
45.715,-9.665,29.433,-26.518,-14.732,39.914,-6.028,23.409,-9.770,-15.576,-6.512,-4.652,34.448,50.132,6.611,-6.320
37.826,-9.645,27.235,-15.115,-10.376,27.769,-3.265,11.911,-8.502,-16.553,-11.964,-0.965,22.887,48.828,1.794,3.845
31.206,-13.247,28.386,-16.084,-17.545,26.195,-14.508,-5.719,-6.995,-17.908,-4.844,1.997,17.550,51.043,-5.157,-4.886
29.940,-19.886,21.579,-21.225,-28.529,16.883,-24.897,-2.214,-10.941,-13.429,-8.620,-5.976,14.506,42.121,-4.177,-11.245
17.926,-20.624,14.704,-28.975,-30.302,19.573,-24.905,-7.645,-14.322,-13.693,-16.069,-15.341,7.280,19.970,-20.026,-7.234
19.626,-22.117,9.648,-39.060,-31.071,17.321,-28.291,-17.939,-8.881,-12.383,-21.596,-20.484,3.679,16.067,-23.830,-16.162
8.607,-13.126,1.519,-47.323,-32.475,0.756,-42.095,-31.678,-8.991,-17.042,-32.513,-27.656,-3.966,8.628,-32.396,-20.914
-3.343,-17.321,-4.413,-33.267,-50.381,-13.074,-47.460,-41.844,-18.003,-25.160,-35.809,-22.846,-14.012,5.610,-51.514,-17.980
-10.666,-13.992,-12.668,-35.942,-41.387,-5.650,-49.405,-50.603,-24.620,-27.428,-32.691,-32.991,-21.623,-3.109,-42.756,-11.211
-14.758,-19.240,-16.964,-32.534,-42.916,-23.287,-53.732,-47.052,-23.418,-26.896,-37.594,-34.103,-25.287,-7.760,-56.989,-17.689
-18.374,-16.808,-15.595,-31.249,-41.456,-19.885,-50.086,-59.121,-14.935,-9.567,-32.976,-29.016,-29.995,-11.786,-47.809,-12.669
-20.882,-19.680,-16.629,-35.121,-38.582,-26.814,-53.502,-51.379,-7.879,-14.895,-25.828,-21.347,-33.927,-22.209,-52.469,-9.399
-28.920,-7.048,-12.923,-29.796,-33.154,-31.198,-43.569,-55.428,-6.678,-6.763,-35.217,-13.814,-30.277,-15.552,-47.349,-1.408
-18.618,-2.780,-15.634,-23.252,-27.107,-30.043,-42.150,-52.478,2.284,2.135,-29.204,-17.669,-29.923,-10.923,-43.627,7.587
-16.739,10.398,-13.291,-13.930,-17.975,-38.964,-39.457,-54.570,2.450,21.055,-27.089,-6.138,-19.639,-9.722,-31.687,7.824
-20.554,15.182,-14.402,-2.020,-18.199,-32.987,-36.666,-43.472,12.764,19.075,-14.239,4.197,-23.449,-5.961,-31.610,11.295
-22.866,26.109,-15.574,-3.930,-2.015,-24.660,-28.085,-37.918,18.538,28.745,-2.530,13.951,-18.553,-10.898,-24.690,18.431
-10.902,27.065,-16.262,12.957,3.908,-21.594,-27.205,-35.864,23.527,42.702,1.261,21.608,-16.147,-8.521,-16.544,30.406
-14.423,24.729,-18.014,17.000,12.336,-20.452,-22.986,-28.843,28.308,51.586,-1.220,26.916,-13.862,-2.069,-7.239,19.445
-7.262,32.422,-17.698,20.685,7.381,-27.756,-15.922,-28.304,28.859,38.502,-2.868,22.796,-13.442,-4.642,-8.657,25.393
4.738,44.604,-15.398,20.358,19.624,-22.183,-12.225,-16.301,23.861,42.051,2.667,24.623,-7.960,-13.958,-6.336,38.262
-5.752,42.112,-19.640,22.902,22.209,-23.766,-6.638,-18.801,18.867,48.694,4.310,28.961,-3.319,-10.077,-5.677,33.651
-9.739,41.760,-26.339,21.117,16.013,-29.709,-8.660,-15.189,14.334,48.434,7.242,27.997,-6.310,-18.671,-1.147,28.774
-6.118,40.253,-28.885,16.248,24.348,-35.137,-19.498,-24.024,13.988,42.849,5.999,20.175,-7.741,-29.231,-4.278,17.502
-22.657,35.595,-26.319,16.310,14.575,-37.322,-23.764,-27.807,10.051,39.235,6.293,21.522,-16.182,-37.292,-6.357,15.865
-27.909,40.825,-24.463,3.388,7.749,-46.030,-13.340,-21.490,2.986,32.827,9.773,11.066,-17.576,-36.289,-2.306,6.082
-32.360,37.707,-26.108,7.128,11.424,-51.836,-12.681,-22.235,1.489,35.826,1.411,5.360,-20.002,-40.984,-14.581,6.984
-25.649,19.106,-26.832,8.145,6.822,-56.561,-5.530,-27.494,-1.422,21.132,-3.222,8.405,-13.132,-49.129,-25.702,-3.988
-24.200,13.244,-33.364,-1.963,4.592,-53.773,-6.050,-28.040,-10.659,20.949,4.395,5.635,-15.243,-54.527,-26.055,-14.025
-25.810,15.014,-38.308,-11.606,6.927,-46.861,-11.216,-23.881,-7.779,11.975,-0.585,-0.603,-22.846,-42.873,-3.568,-11.281
-21.834,16.430,-30.550,-6.771,10.297,-37.519,-6.268,-10.567,-11.674,13.412,1.228,-4.159,-14.405,-49.837,-6.473,-7.382
-21.950,16.593,-32.271,-14.585,-1.504,-37.612,-6.438,-3.404,-17.307,18.480,8.249,-0.002,-6.704,-50.395,-5.308,-7.739
-13.673,12.971,-29.042,-6.516,4.587,-36.480,2.865,-9.232,-27.675,0.248,8.519,-0.203,1.654,-40.261,-1.830,-13.597
-4.098,20.234,-31.011,-9.038,9.967,-24.969,6.232,2.281,-26.218,1.547,7.981,2.229,9.911,-33.957,10.312,-24.197
4.522,32.855,-18.409,-10.742,8.763,-14.926,13.623,-0.010,-18.129,9.880,13.632,2.516,11.452,-27.041,12.626,-13.068
12.403,27.462,-15.824,-10.676,21.822,-4.577,21.588,1.770,-17.785,12.534,24.261,7.172,12.565,-13.666,12.999,-4.404
15.692,29.920,-8.865,-7.435,17.183,4.092,22.930,13.697,-12.824,16.117,27.066,7.046,12.376,-7.792,13.961,-10.060
19.535,36.769,2.268,-1.829,7.799,7.419,23.399,23.720,-11.678,12.607,22.394,12.030,27.524,6.210,24.453,-4.999
25.202,23.258,9.572,-0.753,10.556,18.246,27.067,27.220,-15.391,2.680,26.009,9.807,29.732,8.690,27.740,-7.995
41.992,15.607,15.843,-0.801,9.460,14.790,27.135,32.834,-16.816,3.637,24.171,6.232,38.286,3.462,35.234,-1.078
44.791,16.796,13.960,-8.498,11.329,13.269,23.986,35.514,-17.135,5.124,20.189,7.416,39.937,15.982,27.513,-9.617
33.096,14.760,15.244,-11.241,2.528,12.157,25.138,28.119,-19.807,-11.206,17.151,-1.356,37.926,23.757,15.600,-18.949
34.505,7.284,12.810,-22.324,1.872,14.615,26.466,30.131,-21.578,-10.695,7.896,-6.697,31.517,25.405,17.539,-29.110
31.211,-11.789,15.385,-29.159,-4.659,16.589,16.694,10.142,-25.185,-19.483,5.751,-17.459,24.381,21.055,12.024,-25.918
27.883,-22.928,9.832,-41.316,-10.478,14.817,9.472,10.983,-31.341,-29.089,1.616,-26.551,18.469,9.419,12.632,-30.300
28.478,-19.567,9.833,-38.139,-23.099,16.177,1.960,1.974,-33.492,-35.481,-11.197,-34.181,14.562,10.260,-6.035,-32.143
13.140,-31.552,5.064,-44.044,-35.259,16.389,-7.296,-4.554,-36.274,-36.458,-15.080,-34.815,11.863,7.365,-9.326,-44.012
7.923,-34.453,1.620,-42.893,-40.153,6.618,-18.492,-7.162,-36.780,-46.392,-19.969,-43.202,4.343,12.573,-20.686,-45.763
13.419,-37.614,-2.888,-51.487,-53.607,3.915,-13.721,-24.300,-41.132,-51.995,-26.612,-37.995,-0.131,7.618,-26.599,-56.317
13.414,-43.421,-3.733,-52.013,-52.035,-3.286,-24.617,-23.330,-39.160,-56.103,-30.278,-50.385,4.679,2.283,-25.343,-47.286
7.948,-47.968,-0.651,-48.010,-50.183,3.036,-26.706,-25.207,-41.526,-47.464,-32.570,-43.206,4.309,9.899,-38.389,-50.442
14.264,-55.311,-2.774,-47.606,-54.163,-0.146,-24.149,-37.190,-32.024,-38.083,-32.848,-39.206,3.088,19.134,-26.444,-45.746
11.814,-47.227,-2.255,-50.833,-45.102,10.595,-35.321,-25.174,-32.385,-46.291,-37.638,-35.862,0.988,24.104,-34.456,-34.715
7.700,-30.185,5.755,-42.447,-36.461,10.777,-30.592,-25.250,-23.341,-39.576,-31.552,-33.420,-3.511,21.568,-32.162,-22.218
14.803,-26.744,4.254,-37.358,-37.184,14.290,-27.969,-26.710,-17.197,-31.402,-31.032,-23.874,0.514,19.595,-26.877,-23.263
14.522,-15.420,9.552,-30.555,-35.006,16.702,-19.710,-25.904,-8.685,-28.231,-30.056,-19.013,5.712,28.661,-25.436,-5.553
10.013,-14.731,14.885,-23.548,-29.858,17.157,-19.807,-16.863,-8.031,-12.831,-33.738,-22.530,4.853,22.815,-36.220,-3.061
12.611,-10.899,13.699,-13.421,-26.425,26.084,-21.586,-17.823,-0.544,0.578,-32.328,-11.725,-0.634,21.525,-26.837,2.832
8.906,-5.350,11.331,-15.120,-26.073,19.724,-23.410,-15.531,4.638,11.299,-30.551,-2.416,2.875,22.658,-29.878,15.202
4.369,-3.119,7.323,-7.389,-18.891,18.199,-28.572,-23.945,4.088,15.197,-28.057,3.032,4.586,27.640,-27.960,4.666
4.463,-4.554,3.460,-3.814,-21.199,6.155,-25.731,-24.477,10.935,6.092,-31.584,-0.511,-3.083,31.814,-34.392,8.434
10.865,1.220,2.102,0.788,-20.614,-0.587,-33.988,-28.089,9.760,7.773,-32.362,-0.712,-7.255,20.506,-32.679,11.909
-11.615,-8.813,-1.603,-5.691,-24.621,-5.454,-29.334,-34.103,8.679,4.259,-32.062,-5.476,-6.961,6.357,-33.197,23.592
-8.732,-2.411,-6.550,-16.924,-20.297,-17.467,-31.843,-38.506,0.519,13.495,-30.448,0.709,-15.936,1.036,-44.898,27.945
-23.914,3.981,-6.996,-20.645,-11.287,-25.037,-39.452,-50.585,2.816,14.062,-36.100,6.969,-17.943,-2.706,-52.234,25.998
-28.151,-3.944,-16.207,-10.990,-19.290,-30.465,-38.711,-63.750,2.504,2.998,-36.766,-0.263,-23.984,-15.722,-49.812,20.811
-43.300,-0.918,-19.465,-16.219,-18.448,-36.418,-40.385,-63.605,2.606,-1.881,-29.652,2.644,-28.591,-27.105,-48.660,16.613
-47.240,-6.638,-27.674,-11.171,-22.185,-43.001,-42.606,-62.298,-6.167,4.191,-33.687,8.239,-32.252,-23.052,-51.841,31.216
-50.861,-1.022,-38.093,-5.863,-21.387,-52.916,-50.309,-61.556,-8.771,2.046,-30.858,5.140,-33.754,-40.303,-49.445,24.695
-50.761,-3.594,-36.635,2.146,-12.006,-46.240,-50.837,-56.925,-2.802,4.385,-28.176,5.850,-38.766,-42.225,-44.658,26.447
-58.894,10.674,-35.181,2.720,0.341,-45.009,-40.388,-57.745,-1.371,17.242,-28.652,6.454,-35.894,-43.221,-33.010,20.721
-55.817,11.436,-36.672,17.516,6.156,-31.313,-27.323,-44.949,0.019,30.254,-18.013,4.890,-29.416,-30.482,-39.594,20.597
-46.372,20.188,-37.742,8.416,9.925,-31.038,-30.094,-37.461,5.168,27.930,-12.334,11.546,-31.268,-31.800,-33.465,27.136
-40.344,26.422,-31.357,9.020,25.307,-27.213,-23.898,-26.864,4.951,33.537,-7.979,17.791,-22.659,-33.457,-24.363,36.276
-31.826,28.476,-21.659,29.257,29.565,-28.740,-10.891,-22.049,6.179,43.737,3.891,25.224,-13.968,-26.558,-6.748,44.480
-22.859,37.250,-17.266,31.064,26.524,-16.687,-4.580,-17.553,14.072,58.130,13.058,31.563,-8.909,-17.219,-5.670,42.991
-22.363,44.962,-20.749,40.106,50.696,-10.115,7.072,-2.016,17.541,52.504,19.028,35.334,-1.465,-13.446,9.801,40.890
-18.988,59.360,-17.539,35.118,60.256,-5.655,11.797,15.520,15.826,54.471,24.614,36.942,6.250,-9.130,21.197,43.690
-4.944,62.972,-14.198,39.722,49.645,-4.435,17.614,9.503,16.843,53.770,25.693,35.914,19.029,-1.538,23.745,41.729
-7.406,60.410,-15.775,41.481,65.299,-11.771,26.666,12.697,15.399,43.322,26.992,35.104,18.220,-15.379,25.458,50.822
-8.137,57.120,-11.234,30.903,56.090,-0.666,30.917,21.358,17.569,54.889,23.312,27.983,17.971,-6.235,25.967,40.418
-4.827,54.893,-12.501,19.826,40.887,-4.062,26.156,22.136,7.105,49.899,17.763,36.077,24.208,-6.808,36.172,43.395
-5.696,44.435,-12.520,17.438,45.487,-4.837,21.455,21.601,-0.114,42.194,12.624,22.846,26.812,-9.383,28.036,27.622
-0.508,38.706,-15.379,16.162,38.865,-1.297,18.952,14.376,-3.031,17.030,9.592,18.004,28.790,-12.696,30.045,21.237
-0.079,25.528,-18.875,15.493,38.022,-2.798,18.511,19.026,-10.750,15.186,6.580,16.891,20.761,-12.229,33.667,4.081
8.707,14.572,-16.180,7.004,29.093,-9.663,14.285,14.368,-22.417,12.149,1.176,0.523,23.167,-6.294,26.326,-6.373
5.711,10.727,-15.532,-3.106,24.710,-6.436,9.395,11.271,-30.348,-11.075,4.805,-2.676,28.205,-9.534,22.961,-2.321
-6.982,3.646,-19.960,-6.735,6.009,-14.072,5.440,4.938,-31.926,-10.711,4.459,-6.330,26.272,-11.551,16.853,-6.075
6.330,3.606,-17.183,-11.763,0.861,1.199,6.347,12.574,-34.410,-6.197,3.999,-9.143,25.849,-13.994,17.737,-8.729
2.052,-8.296,-13.870,-7.231,-3.996,2.225,4.712,18.088,-31.545,-16.131,7.002,-9.562,30.386,-8.107,15.301,-18.318
11.966,-3.715,-5.904,-12.120,-2.135,1.030,4.524,15.964,-28.443,-14.063,3.954,-9.142,32.715,1.767,14.011,-20.610
10.301,-7.352,-4.273,-3.932,-6.640,4.791,7.244,17.330,-26.661,-15.656,12.037,-10.254,29.942,4.850,6.707,-13.112
14.517,1.273,3.010,-12.040,-2.068,11.180,7.182,19.622,-21.431,-11.740,12.088,-4.670,38.336,23.631,9.727,-12.659
25.963,1.090,7.244,-7.245,5.524,25.809,5.444,26.932,-18.953,-4.466,13.844,-1.466,46.671,30.208,14.708,-14.588
34.255,3.397,17.028,-5.170,-2.476,27.969,12.430,32.891,-19.515,-4.787,11.963,-4.829,45.349,41.541,16.689,-7.422
39.518,5.989,19.883,0.902,0.065,42.397,14.989,36.282,-16.877,-4.301,10.198,-2.933,45.948,49.477,26.347,-7.371
55.688,11.110,23.635,-2.944,10.857,47.702,21.560,35.701,-15.591,4.549,13.338,-1.805,45.742,57.689,18.445,-2.286
49.173,14.183,26.215,1.459,5.485,56.972,31.999,41.602,-7.412,11.879,10.234,-5.936,47.125,56.093,26.686,4.721
54.907,16.208,37.657,7.329,2.701,55.246,30.063,39.403,-9.117,0.916,11.966,-2.726,50.456,57.924,33.611,14.600
50.198,17.542,34.277,-2.756,3.697,50.943,20.513,35.356,-9.790,-9.716,5.406,-7.780,52.726,59.268,20.799,-3.536
55.178,1.291,29.659,-6.438,5.185,46.348,15.113,30.839,-10.694,-2.157,4.305,1.717,52.783,51.690,15.966,2.751
44.980,-7.842,31.157,-12.061,-10.860,43.955,11.538,15.842,-6.220,-9.294,-1.840,-2.113,46.950,47.174,3.142,0.180
27.082,-2.923,27.570,-26.142,-2.009,34.491,4.884,9.659,-9.312,-7.061,-3.080,-11.037,42.566,54.346,-7.234,-2.416
26.072,-10.079,20.747,-26.854,-12.437,31.628,0.399,1.241,-14.679,-17.535,-16.955,-18.701,29.962,44.382,-9.269,-7.972
22.568,-16.685,15.083,-29.463,-21.879,20.266,-16.917,-0.435,-11.298,-12.149,-16.418,-17.603,21.597,38.557,-24.239,-5.206
20.955,-26.936,17.245,-36.131,-32.064,8.335,-19.529,-6.209,-8.717,-23.514,-22.005,-15.706,19.118,30.048,-28.204,-11.962
10.473,-21.008,9.029,-33.449,-34.554,2.490,-17.089,-12.885,-11.030,-32.520,-23.692,-21.462,12.992,17.236,-33.965,-17.639
19.383,-23.659,4.617,-32.025,-38.235,-1.571,-20.294,-25.661,-10.275,-36.654,-26.670,-13.490,10.633,26.535,-29.331,-13.405
-1.563,-28.587,8.629,-34.091,-43.360,-3.552,-25.377,-24.292,-18.477,-35.243,-39.462,-9.897,-2.055,23.308,-29.677,-22.301
-10.317,-18.979,3.360,-27.872,-30.142,5.949,-28.052,-29.363,-16.197,-19.357,-27.513,-23.092,-3.367,23.831,-29.864,-15.701
1.489,-15.768,9.214,-25.183,-38.384,5.885,-30.621,-26.525,-9.954,-10.758,-25.302,-12.762,-1.461,17.820,-24.873,-2.951
-7.783,-12.463,7.437,-19.923,-32.638,-0.012,-31.093,-29.173,-2.119,-4.088,-17.507,1.318,1.137,13.815,-22.538,1.577
-9.776,-9.052,5.117,-8.951,-27.508,8.025,-31.349,-26.191,5.419,1.778,-20.932,4.715,0.182,19.746,-22.479,3.800
-0.647,4.950,4.810,1.783,-22.118,1.467,-27.234,-10.740,14.463,7.135,-13.886,0.566,4.783,19.460,-12.223,10.253
13.348,20.892,5.897,7.403,2.456,-5.565,-15.003,-12.523,11.573,21.623,-6.322,16.307,4.503,19.578,-7.173,38.063
15.331,31.134,7.054,21.744,8.849,4.097,-2.217,-6.651,28.835,27.521,-2.815,18.992,8.187,19.468,-1.626,32.113
15.066,44.394,7.673,27.270,9.307,7.822,-1.341,-2.140,31.277,38.411,-1.519,20.684,16.760,19.698,-6.309,46.120
5.728,35.066,9.433,33.630,18.833,4.167,7.774,-1.602,33.197,37.916,7.200,31.484,13.698,26.687,-10.547,50.160
9.001,39.626,7.205,31.319,14.016,9.225,9.387,4.848,29.821,52.209,5.286,34.040,15.736,18.086,0.733,60.353
0.991,43.464,2.043,37.351,21.928,3.226,5.821,2.688,33.771,52.002,6.837,41.064,18.920,17.851,5.976,57.521
0.783,39.848,-0.545,35.656,27.943,-1.070,2.648,4.008,30.953,55.826,18.310,31.385,13.483,5.218,3.800,58.781
-9.594,46.502,0.682,23.970,39.145,-5.983,6.305,7.828,30.944,60.320,16.499,36.391,12.192,-1.989,6.520,45.789
-5.059,45.081,-2.942,26.599,39.812,-16.404,-2.229,3.305,26.406,51.487,15.884,36.954,6.514,-10.249,-1.501,36.936
-4.607,29.149,-12.847,16.738,30.512,-18.117,-10.604,0.737,20.722,40.764,16.474,28.748,4.739,-16.247,-0.792,33.063
-9.545,32.886,-12.024,9.379,31.451,-20.707,-6.060,-7.967,19.879,51.567,12.777,26.924,1.044,-19.022,-6.817,28.939
-18.151,30.986,-19.509,13.519,29.282,-26.791,-10.926,-12.444,17.296,40.024,11.347,27.044,-2.152,-26.661,-8.071,25.251
-14.572,33.278,-16.921,12.997,24.950,-25.344,2.663,-5.206,13.702,30.409,9.284,22.351,-6.878,-25.246,-3.258,11.986
-23.911,32.753,-20.211,12.265,24.775,-26.859,-1.427,-1.857,8.711,31.912,15.803,16.475,-4.715,-16.897,0.962,20.593
-19.417,36.012,-23.516,19.632,19.133,-35.292,-2.931,-1.314,8.359,26.277,10.618,20.160,-1.595,-25.554,-10.694,19.237
-8.499,33.326,-23.466,20.502,21.610,-32.942,-6.990,-0.820,8.936,34.882,10.571,26.467,5.198,-30.272,-0.962,18.883
-8.864,36.982,-22.697,23.252,27.555,-24.758,4.006,5.088,3.155,40.008,13.260,22.403,7.931,-24.930,12.063,21.329
-1.424,44.766,-20.372,17.492,32.646,-8.640,10.988,6.289,-2.429,48.689,18.142,29.257,8.548,-17.657,17.223,16.569
8.634,50.000,-11.207,19.933,34.218,-5.184,12.405,19.607,1.697,42.153,23.621,34.360,18.320,-12.734,15.496,14.487
30.363,55.402,0.227,24.117,39.478,4.660,18.876,28.715,5.458,32.773,27.855,32.831,28.971,-2.257,31.191,13.796
23.034,57.896,3.102,27.353,40.441,18.400,32.656,43.399,1.811,33.965,40.453,27.135,35.055,11.832,45.343,22.530
33.543,62.560,5.801,25.459,41.044,17.698,33.163,43.604,4.238,42.493,43.376,27.138,38.167,11.412,47.082,24.253
42.691,51.838,13.791,29.781,36.055,25.919,43.748,45.770,-1.194,36.926,43.998,32.147,43.079,15.702,55.564,16.605
40.457,55.946,16.258,32.959,40.562,36.483,50.453,54.519,6.798,33.703,49.018,22.877,48.318,23.238,57.408,16.970
41.834,52.583,19.451,31.759,27.509,32.787,46.667,60.301,4.835,39.093,43.863,20.046,47.881,29.429,57.705,10.243
40.053,46.397,16.303,12.105,30.651,39.771,41.715,56.101,2.791,37.482,45.469,13.645,48.342,21.377,50.063,16.971
38.730,32.641,21.664,10.430,29.311,36.003,36.668,51.240,-0.719,23.046,42.840,12.113,46.711,20.821,49.378,11.064
37.033,26.393,18.135,6.215,13.128,35.210,41.406,48.404,-9.385,8.277,35.147,1.136,37.609,20.147,46.303,10.088
34.539,22.878,19.296,-5.978,6.613,36.380,34.387,43.053,-12.015,4.683,27.473,-6.606,34.932,16.859,45.986,6.895
31.940,10.103,16.703,-3.444,-3.059,41.222,23.122,42.446,-22.626,14.948,17.594,-12.527,30.398,11.270,35.867,-9.802
15.318,-0.625,14.539,-3.704,-10.695,25.978,19.012,30.530,-27.868,0.336,9.651,-17.571,29.506,13.987,24.349,-22.425
23.656,-20.775,19.232,-27.143,-26.205,22.190,10.466,24.748,-33.617,-4.873,2.055,-22.032,25.404,11.180,14.170,-27.857
35.861,-22.481,13.100,-33.455,-27.839,16.948,6.495,16.386,-39.517,-13.636,-10.980,-36.452,23.333,15.927,12.937,-32.384
34.176,-30.205,11.149,-37.342,-27.127,18.970,7.538,13.275,-37.276,-16.602,-8.799,-43.039,27.797,20.513,-0.801,-33.459
35.427,-37.219,13.313,-46.034,-36.246,22.452,6.676,8.719,-36.789,-22.998,-11.356,-37.325,28.322,32.142,-3.066,-28.799
32.236,-37.280,17.082,-46.896,-25.785,27.984,11.760,9.158,-40.952,-28.585,-14.934,-38.508,29.130,25.889,0.624,-33.142
33.080,-35.501,17.281,-45.101,-30.247,28.198,2.197,0.368,-31.124,-34.317,-16.191,-29.047,31.779,22.686,-12.060,-36.616
34.338,-26.800,22.663,-38.897,-24.370,24.769,2.105,3.666,-30.185,-30.705,-16.335,-25.059,31.756,27.373,-2.337,-35.123
35.097,-30.743,27.648,-41.148,-16.857,29.679,6.884,6.003,-19.252,-27.711,-14.794,-25.941,27.371,41.115,2.585,-25.486
37.793,-25.090,27.702,-34.217,-25.411,37.804,11.358,-2.873,-13.041,-24.557,-14.164,-11.308,36.553,37.697,3.984,-7.708
42.588,-11.783,30.654,-21.361,-23.703,38.698,10.130,1.602,-6.807,-11.042,-11.326,-12.110,32.203,40.258,3.020,-4.782
41.471,-0.504,31.154,-15.815,-22.100,36.952,14.742,6.187,-0.740,-6.133,-5.742,-5.502,35.191,50.249,1.967,2.767
44.914,2.033,28.867,-13.453,-22.307,47.306,4.062,12.668,-1.371,-1.131,-5.486,-11.158,37.936,54.344,-4.378,5.169
38.196,-2.075,27.453,-14.044,-20.181,42.780,3.133,9.451,2.751,-1.548,-9.911,-5.798,34.354,53.457,-1.965,7.713
37.109,4.938,28.516,-17.921,-14.786,33.757,-0.850,2.572,2.923,2.231,-5.298,-2.252,28.390,43.609,-4.389,17.515
29.563,3.222,21.916,-21.492,-13.094,31.182,-5.766,1.379,-0.066,6.957,-12.803,-1.432,30.938,38.632,-5.756,18.384
24.260,-5.208,10.647,-18.791,-9.848,25.330,-9.449,-0.529,-1.067,0.100,-14.597,1.504,19.520,35.019,-1.717,19.608
16.039,-3.957,7.963,-15.978,-15.229,10.878,-18.041,-20.598,-1.859,-1.212,-11.525,-7.264,10.819,25.465,-7.988,13.936
9.790,-19.811,3.761,-20.070,-15.348,9.595,-19.276,-27.004,-4.299,-5.796,-20.162,-9.506,4.425,22.274,-8.653,2.244
0.069,-19.548,0.978,-23.736,-19.622,-3.482,-22.387,-41.210,-2.076,-6.636,-25.060,-7.758,0.207,10.215,-22.097,0.758
-1.977,-12.767,-2.833,-19.053,-24.199,-3.657,-37.034,-45.497,-12.080,-1.153,-32.245,-6.699,-11.557,0.195,-31.352,-2.316
-13.533,-14.622,-12.622,-20.857,-30.275,-15.800,-34.044,-48.811,-9.878,-10.825,-26.140,-6.145,-13.409,-10.769,-31.050,-1.887
-17.425,-16.378,-17.210,-19.088,-25.249,-22.285,-39.243,-49.612,-0.766,-9.194,-31.664,-2.621,-16.814,-8.959,-42.560,-3.385
-21.034,-10.520,-24.029,-19.700,-18.174,-30.840,-33.256,-59.141,-8.780,2.296,-30.725,-6.710,-18.566,-21.621,-36.237,4.451
-35.041,-12.715,-24.766,-10.818,-24.234,-30.779,-36.669,-58.157,-4.726,5.393,-29.297,-6.092,-23.012,-28.828,-35.199,7.071
-28.953,-12.407,-24.957,-15.216,-20.491,-35.471,-37.204,-54.361,2.134,5.552,-22.066,-6.396,-22.013,-30.719,-29.345,9.425
-23.178,-0.636,-21.711,-8.215,-14.631,-42.691,-40.242,-48.171,4.886,18.830,-16.246,2.957,-21.834,-35.660,-34.634,23.459
-26.520,3.846,-23.278,2.110,-4.377,-33.274,-30.700,-41.646,1.807,25.501,-4.242,15.789,-16.689,-28.454,-29.998,39.958
-21.332,14.696,-16.918,7.551,14.352,-27.474,-18.783,-44.672,2.880,20.242,-3.740,14.167,-14.672,-19.279,-20.499,35.707
-26.709,27.228,-14.984,10.868,17.428,-23.074,0.949,-32.018,3.579,30.215,-4.590,15.885,-5.079,-21.894,-18.216,22.724
-7.388,40.799,-13.830,21.811,27.083,-26.726,-1.469,-25.414,13.661,32.144,5.402,28.698,7.852,-13.855,-7.946,31.044
-10.524,27.954,-20.114,22.524,26.921,-29.550,-14.581,-23.964,11.302,23.421,-4.756,23.357,-5.774,-32.917,-15.725,23.803
-12.568,24.535,-22.484,27.462,24.961,-35.128,-10.696,-20.073,17.564,31.460,-0.754,22.714,-9.912,-31.718,-3.945,18.870
-11.198,27.725,-23.265,30.776,32.184,-30.438,-6.978,-22.671,15.367,38.105,5.430,25.679,-6.424,-21.710,4.172,23.251
-12.722,26.555,-23.699,31.143,24.743,-31.847,-4.316,-16.060,9.918,18.136,3.155,26.413,-1.545,-17.941,-2.093,24.281
-15.995,35.470,-19.973,33.744,15.499,-33.689,0.133,-14.498,11.471,29.134,11.171,33.845,-4.321,-22.656,3.756,26.336
-3.226,27.886,-18.431,33.039,27.652,-25.194,5.050,-13.522,6.767,20.096,13.317,36.722,-2.624,-20.956,12.986,20.945
-11.251,25.454,-16.009,28.876,29.946,-18.439,5.246,-7.871,-1.402,30.772,11.049,27.403,1.067,-24.475,19.530,14.873
-16.556,28.302,-14.830,27.358,25.624,-13.380,12.633,-1.677,-2.445,29.244,22.284,33.290,-0.906,-20.413,21.171,5.869
-10.518,25.303,-11.060,12.374,27.559,-16.751,15.178,8.139,-0.576,28.946,19.283,32.225,9.966,-21.472,24.669,3.611
-6.109,18.522,-13.493,11.632,27.027,-12.798,24.329,3.073,-2.349,29.769,18.482,27.999,15.289,-18.365,28.894,8.844
-10.810,10.194,-12.393,14.464,22.131,-1.728,17.163,-1.378,-3.510,19.946,20.874,18.298,22.400,-22.787,20.456,7.658
-6.327,11.461,-7.727,15.181,24.972,1.567,19.923,-3.844,-9.801,27.668,24.686,9.084,25.135,-29.761,22.082,-5.116
-6.263,9.905,-3.217,4.383,22.999,4.374,19.673,-2.413,-16.221,10.598,28.193,7.706,29.527,-24.266,29.928,-1.751
-6.154,-1.927,0.303,1.288,15.911,7.162,10.575,3.964,-11.437,12.330,30.231,8.143,30.287,-12.846,22.846,-2.747
-2.580,-9.688,2.005,-7.232,19.704,7.181,10.095,6.128,-13.907,6.046,26.327,4.572,24.098,-0.519,26.202,-16.320
-4.099,-1.290,2.901,-6.893,18.181,11.175,8.702,6.470,-17.625,6.479,21.862,-0.592,27.907,2.897,28.928,-20.010
2.153,4.697,1.973,-14.303,13.447,8.374,6.468,7.290,-20.037,0.122,17.350,-10.741,27.331,-1.946,26.323,-27.375
7.488,-11.317,9.586,-9.799,4.440,13.844,2.706,16.980,-23.098,-13.798,13.533,-10.869,30.973,2.962,29.267,-29.168
11.492,-19.559,9.778,-12.351,5.606,12.933,6.958,9.537,-23.263,-9.930,12.898,-8.938,33.676,10.098,26.183,-25.239
22.942,-14.998,11.666,-13.007,6.818,15.187,-1.484,15.057,-23.053,-2.935,6.919,-14.297,33.235,19.046,22.966,-27.391
24.146,-26.582,14.401,-13.761,5.426,19.940,2.039,5.644,-25.993,-10.847,4.336,-16.712,29.374,24.444,31.441,-20.727
20.126,-24.127,16.053,-9.854,-5.365,20.228,-5.927,9.520,-36.394,-20.989,5.214,-17.417,27.480,24.514,29.803,-26.081
25.188,-25.748,16.136,-20.996,-7.366,21.215,-5.075,-2.259,-36.742,-23.110,0.037,-19.638,27.096,33.120,22.774,-19.493
15.226,-37.342,18.732,-22.579,-15.674,27.074,-7.871,-4.410,-35.524,-18.163,5.187,-24.867,26.182,25.668,9.497,-30.328
22.236,-44.916,23.795,-28.950,-13.831,25.739,-7.119,-5.906,-35.033,-24.362,3.460,-26.845,26.765,26.999,11.345,-31.563
25.452,-35.102,21.020,-40.127,-18.311,24.002,-7.975,0.499,-29.140,-26.243,0.584,-26.386,23.093,19.148,1.255,-51.552
20.582,-29.595,22.352,-35.617,-20.617,25.533,-15.737,-5.637,-29.944,-32.119,3.946,-26.388,21.762,17.131,8.143,-51.053
13.978,-29.689,23.793,-35.516,-25.802,29.403,-18.059,-14.454,-26.517,-35.287,-3.376,-22.609,16.585,16.755,8.344,-41.524
12.259,-32.451,21.455,-42.012,-40.023,21.529,-24.461,-15.919,-20.708,-24.143,-6.103,-24.507,12.455,25.132,-0.094,-43.554
19.447,-31.931,23.297,-43.416,-37.684,17.163,-23.990,-14.430,-20.788,-21.702,-16.478,-29.691,10.051,20.659,2.089,-54.038
21.251,-32.045,15.051,-39.373,-39.056,20.734,-25.763,-21.693,-15.590,-17.244,-23.608,-26.756,10.898,21.902,-4.318,-50.980
21.363,-32.827,19.638,-48.553,-34.770,22.894,-32.962,-23.186,-13.488,-22.904,-24.566,-21.470,1.188,18.945,-9.102,-43.028
10.985,-27.443,15.993,-49.137,-31.960,20.662,-31.856,-24.745,-11.647,-31.439,-24.201,-27.770,4.047,26.258,-22.934,-39.048
10.710,-23.626,14.586,-55.776,-35.478,16.373,-29.825,-31.948,-8.999,-21.624,-19.135,-17.508,-1.716,27.771,-19.324,-37.494
9.266,-24.959,15.015,-43.929,-20.420,12.952,-32.918,-35.191,-8.378,-22.295,-19.175,-14.150,-6.407,21.132,-26.707,-28.981
1.555,-20.204,14.567,-44.061,-25.493,10.771,-28.986,-33.179,-4.218,-20.612,-28.293,-26.770,-7.991,22.286,-38.764,-25.970
-6.085,-15.873,15.802,-44.100,-27.827,4.990,-31.922,-41.762,-4.786,-21.222,-20.697,-15.683,-7.211,9.342,-36.796,-27.134
-22.019,-15.792,12.468,-45.684,-21.292,4.749,-31.274,-39.024,-5.611,-22.693,-25.449,-16.471,-7.270,7.856,-31.114,-16.387
-16.565,-18.809,0.812,-30.317,-20.390,-6.614,-36.932,-51.029,-2.252,-19.280,-24.033,-16.831,-8.061,-1.609,-31.863,-14.638
-16.274,-7.614,0.367,-28.470,-23.255,-11.275,-39.708,-53.776,-3.095,-11.598,-20.800,-9.194,-9.487,-2.529,-37.852,-20.836
-20.931,1.424,-3.290,-22.274,-19.650,-7.792,-38.614,-57.998,6.803,-5.527,-17.117,-3.462,-14.636,-2.422,-36.988,-11.735
-20.582,0.857,-5.831,-21.566,-13.147,-13.783,-40.364,-57.607,8.977,-8.921,-19.671,2.685,-16.071,-4.960,-37.554,-1.123
-28.430,-0.775,-5.829,-17.063,-14.917,-16.106,-32.856,-64.793,12.547,-9.295,-18.798,3.341,-19.006,-4.342,-36.193,2.652
-28.463,0.194,-16.023,-12.896,-4.734,-22.611,-36.766,-58.596,7.500,2.670,-17.046,2.523,-22.814,-10.038,-35.814,-3.961
-30.998,5.285,-18.486,-5.892,7.043,-25.965,-37.292,-58.396,11.042,-4.733,-19.493,6.635,-23.328,-11.764,-26.816,-0.959
-29.523,2.812,-19.790,-1.369,1.297,-30.813,-29.616,-51.869,10.524,9.917,-17.042,15.907,-30.610,-20.847,-24.728,0.334
-42.326,8.492,-23.494,2.269,-0.637,-29.932,-28.613,-48.792,12.673,3.847,-11.445,15.394,-27.284,-28.291,-27.728,2.614
-39.721,11.870,-22.943,1.798,1.599,-38.790,-26.498,-51.656,13.029,15.272,-9.562,16.378,-23.115,-25.968,-19.784,-2.400
-42.946,-1.629,-25.735,7.592,10.800,-36.278,-24.518,-51.300,16.264,21.986,-12.958,21.933,-17.500,-30.689,-23.317,6.377
-45.392,3.020,-25.642,13.174,10.276,-31.304,-21.677,-49.109,17.178,17.761,-10.512,25.286,-14.995,-36.844,-22.268,3.335
-44.221,15.230,-24.761,21.188,16.263,-35.381,-15.419,-42.246,13.617,16.808,-8.568,30.852,-19.967,-34.448,-15.345,6.144
-42.719,10.502,-23.685,12.673,11.637,-34.079,-12.367,-38.468,15.166,17.107,-4.375,32.409,-25.672,-24.815,-6.444,7.496
-46.127,14.055,-23.668,24.233,20.772,-40.817,-8.655,-33.639,15.272,21.656,0.511,29.680,-24.332,-29.062,-7.520,11.663
-46.362,13.248,-20.950,28.920,28.651,-34.876,-6.748,-30.750,14.090,34.984,4.921,26.303,-21.918,-33.005,-1.498,14.985
-47.656,22.902,-28.399,22.179,29.379,-22.861,-6.043,-27.276,12.736,35.159,6.691,20.575,-19.412,-35.431,3.567,10.650
-41.216,24.393,-23.588,21.135,27.457,-27.786,-2.915,-23.031,15.515,31.593,12.273,28.340,-17.527,-20.708,20.438,2.253
-48.952,30.028,-19.964,14.219,33.318,-26.944,8.522,-20.361,10.079,25.398,18.614,21.274,-12.961,-23.462,17.277,7.017
-37.023,22.449,-13.759,16.206,31.279,-31.320,5.055,-8.927,4.554,20.799,13.279,21.379,-4.872,-37.604,22.034,7.754
-30.752,16.928,-15.991,19.511,34.956,-33.405,10.718,-11.367,7.155,18.721,12.918,29.387,-4.206,-28.089,10.904,11.696
-27.932,17.780,-13.475,19.738,40.550,-33.189,11.278,-3.946,0.532,19.592,13.643,27.923,3.416,-27.003,26.816,9.831
-22.521,12.903,-12.518,23.374,31.630,-25.926,8.446,-0.085,6.269,8.720,13.642,22.986,-1.194,-10.893,29.906,4.679
-22.301,14.138,-11.170,18.648,29.266,-22.572,10.902,-3.409,-2.902,17.007,21.545,19.965,5.855,-11.288,22.462,0.231
-18.156,18.188,-14.392,19.794,27.342,-12.101,18.544,2.498,-1.774,23.654,20.469,13.706,10.016,-12.180,18.924,0.161
-10.558,21.730,-3.273,9.075,23.839,-7.764,23.119,6.183,-5.073,18.167,11.662,18.588,18.124,-2.780,27.790,-11.106
2.100,13.831,-2.560,1.929,6.663,-12.361,17.950,4.979,-6.318,4.112,8.625,17.054,16.527,1.112,21.709,-13.852
1.585,11.904,0.446,2.154,11.195,-11.974,22.531,12.358,-14.437,9.378,20.003,8.464,18.021,-6.145,27.662,-17.560
6.513,12.539,4.835,7.187,14.237,4.067,23.515,11.844,-14.207,12.293,18.782,3.459,26.746,-4.818,19.011,-13.113
12.740,2.609,7.872,5.311,5.108,5.620,21.884,7.728,-14.336,5.643,20.808,-2.968,21.054,10.880,20.953,-16.542
10.896,-1.677,8.097,6.434,8.228,4.882,23.399,18.435,-18.609,2.685,17.725,-3.180,23.599,12.203,25.054,-24.903
14.750,3.981,9.579,-10.517,4.314,10.591,21.879,19.350,-20.971,-4.000,14.503,-8.784,21.653,13.092,23.257,-13.800
18.514,4.444,13.074,-7.873,8.355,20.883,17.667,16.739,-24.312,-0.193,11.142,-11.036,24.865,12.766,16.368,-19.626
23.394,-1.722,10.568,-6.940,-8.084,16.120,20.864,13.469,-24.455,-8.482,3.046,-7.386,24.120,16.995,25.672,-21.516
28.222,-3.049,12.335,-3.849,-10.573,16.409,16.223,15.988,-21.791,-8.733,5.781,-8.251,25.260,23.966,32.588,-25.511
28.416,-13.128,16.546,-8.925,-12.352,18.250,10.696,10.894,-24.794,-16.822,1.298,-14.633,27.772,23.671,22.571,-25.690
27.034,-17.950,21.471,-18.650,-19.279,32.837,6.472,16.800,-27.786,-17.268,3.121,-22.759,33.222,30.366,19.827,-28.127
33.441,-10.109,22.804,-28.256,-21.779,36.719,2.273,14.011,-24.557,-25.611,-0.373,-23.343,27.935,33.129,14.370,-27.799
30.725,-12.179,22.643,-31.888,-22.400,32.316,6.237,4.232,-27.375,-22.742,-10.583,-25.570,22.487,36.485,19.110,-28.006
45.761,-20.847,29.886,-26.486,-5.652,31.115,-1.306,9.488,-23.118,-25.175,-3.140,-16.059,21.767,35.445,12.722,-26.997
43.110,-25.229,27.811,-32.921,-13.920,22.498,-0.517,8.458,-19.429,-24.023,-16.635,-4.458,21.002,41.643,15.413,-29.387
44.014,-26.132,28.294,-34.894,-17.576,22.736,2.716,6.171,-18.429,-18.360,-7.055,-15.340,18.571,35.325,14.578,-15.540
44.582,-24.224,32.849,-30.760,-19.166,26.992,3.697,1.850,-19.853,-22.614,-6.112,-18.465,21.370,27.166,3.179,-20.477
37.469,-26.060,30.056,-27.241,-25.652,21.364,-5.016,-4.118,-14.481,-18.699,-2.290,-21.762,24.142,26.850,-9.493,-21.160
28.859,-23.655,26.660,-30.567,-30.443,26.637,-5.566,0.832,-12.084,-15.432,-3.373,-17.613,18.896,28.569,1.135,-25.123
23.218,-22.076,29.229,-29.174,-19.000,26.917,-11.709,-7.110,-15.163,-19.152,-13.202,-16.502,8.008,27.483,-20.206,-16.427
26.169,-30.996,29.374,-23.260,-31.646,29.310,-9.573,-26.078,-11.923,-15.132,-20.369,-17.234,7.799,30.804,-14.562,-12.043
22.468,-27.486,28.161,-28.677,-24.569,22.348,-17.323,-30.640,-8.155,-17.588,-17.951,-16.977,6.329,28.600,-14.422,-4.007
25.702,-22.618,30.185,-27.096,-32.339,28.347,-17.283,-36.297,-0.949,-14.389,-18.391,-8.006,12.481,24.323,-15.408,-4.301
17.352,-22.869,19.357,-22.894,-34.442,21.738,-18.919,-40.710,3.155,-9.966,-19.943,-2.559,5.572,25.147,-20.918,-5.477
8.495,-12.261,17.761,-22.171,-27.578,14.177,-16.548,-43.213,-5.080,-6.006,-24.238,2.121,6.960,19.556,-18.788,-2.374
9.705,-15.350,8.708,-20.666,-13.252,17.230,-11.436,-35.459,-0.627,1.650,-21.429,4.770,3.980,21.952,-33.981,17.377
