Fp1,Fp2,F7,F3,Fz,F4,F8,T3,C3,Cz,C4,T4,P3,Pz,P4,O1
30.351,24.899,32.358,27.448,23.786,31.951,29.232,26.121,25.204,23.519,27.645,25.687,32.809,29.999,29.093,29.494
58.704,48.082,61.780,53.596,45.499,61.551,56.391,50.355,47.631,45.077,52.959,50.849,62.192,57.122,56.095,56.051
74.006,60.858,78.092,67.618,57.591,77.895,71.203,63.499,60.019,56.073,67.003,64.546,78.506,72.135,70.973,70.844
70.528,58.026,73.786,64.943,55.221,74.374,67.413,60.546,57.359,53.526,63.939,61.185,74.518,68.865,67.576,67.273
21.025,17.662,22.398,18.907,16.717,22.097,19.978,17.741,17.103,15.703,18.884,18.250,22.746,20.653,20.612,20.909
-2.697,-2.002,-3.338,-3.224,-2.589,-3.786,-3.193,-3.311,-1.975,-2.367,-2.970,-3.266,-3.073,-2.587,-3.025,-1.649
-20.632,-16.132,-21.319,-19.375,-16.181,-22.074,-19.977,-18.534,-16.735,-15.709,-18.893,-18.428,-21.708,-19.604,-19.442,-18.384
-23.969,-19.264,-25.646,-22.481,-18.815,-25.669,-23.348,-21.317,-19.803,-17.912,-21.966,-21.498,-25.475,-22.583,-22.775,-21.666
-14.175,-11.202,-15.261,-13.617,-10.887,-14.967,-13.749,-12.667,-11.332,-10.775,-12.909,-12.867,-15.100,-12.811,-13.300,-12.523
1.883,2.124,2.815,2.070,1.797,2.907,1.833,1.663,1.666,1.710,2.390,1.960,2.833,2.969,2.343,2.895
16.972,14.205,18.086,15.393,13.422,18.293,16.255,14.790,13.791,12.647,16.173,15.159,18.677,16.937,16.342,16.711
24.164,20.513,25.497,22.300,19.041,26.003,23.562,21.060,19.907,18.420,22.584,21.273,26.097,24.309,23.576,23.476
24.551,20.836,26.158,22.435,19.608,26.539,24.207,21.542,20.414,19.132,23.192,22.016,26.880,24.701,23.970,24.441
22.220,18.749,23.110,20.178,17.480,23.580,21.282,19.467,18.489,16.858,20.723,19.266,24.190,22.181,21.536,22.079
20.561,17.396,21.479,18.331,16.379,21.424,19.752,18.203,16.872,15.286,19.267,17.807,22.614,20.346,19.848,20.133
20.951,17.826,21.661,18.931,16.348,21.492,20.073,18.107,17.036,15.814,19.145,17.718,22.803,20.744,20.169,20.435
21.144,17.264,21.641,18.738,16.288,21.009,19.773,18.352,16.887,15.274,18.839,17.488,22.210,20.409,19.925,20.517
16.837,13.653,16.575,14.524,12.679,16.454,15.328,13.990,13.354,11.976,14.869,13.485,17.833,16.351,15.497,16.039
7.149,5.645,5.937,5.563,4.879,6.348,5.826,5.855,5.543,4.599,5.758,5.025,7.425,6.626,5.960,6.388
-4.504,-3.752,-6.072,-5.091,-3.943,-5.674,-5.178,-4.141,-3.586,-3.816,-4.574,-4.948,-4.904,-4.836,-4.647,-4.017
-10.538,-8.846,-12.797,-11.067,-8.995,-12.270,-11.080,-9.625,-9.073,-8.725,-10.197,-10.534,-11.560,-10.374,-10.436,-10.070
-6.187,-4.474,-7.273,-6.557,-5.127,-6.949,-6.406,-5.807,-4.613,-5.013,-5.999,-6.437,-6.592,-5.557,-6.118,-5.162
10.735,8.898,10.442,8.829,8.143,11.001,9.643,8.858,8.372,7.100,9.396,8.371,10.804,10.472,9.652,10.653
33.514,27.240,34.624,29.292,25.382,34.354,31.485,28.574,27.319,24.811,30.123,28.193,34.901,32.654,31.274,32.496
51.082,42.149,52.919,45.643,38.987,52.991,48.452,44.083,41.731,38.009,46.494,43.950,53.609,49.352,47.945,48.782
53.740,44.064,55.843,48.313,41.515,56.050,50.946,46.463,43.720,40.333,48.995,46.155,57.086,51.784,50.834,51.687
38.689,31.469,40.034,34.707,30.002,40.172,36.516,33.455,31.213,28.354,34.733,32.806,40.800,37.145,36.465,37.413
11.297,9.142,11.315,9.744,8.380,11.509,10.521,9.510,9.292,7.769,9.827,9.210,12.247,10.867,10.297,11.646
-15.627,-12.797,-17.080,-14.620,-12.587,-17.522,-15.247,-13.398,-12.548,-12.266,-15.163,-14.124,-16.453,-15.114,-15.149,-14.263
-29.348,-24.385,-31.846,-27.252,-23.098,-32.175,-28.617,-25.849,-23.905,-23.017,-27.389,-26.476,-30.965,-28.735,-28.827,-27.165
-23.964,-19.990,-26.389,-22.786,-18.963,-26.564,-23.640,-21.351,-19.650,-18.864,-22.577,-21.912,-25.711,-23.718,-23.808,-22.263
-2.996,-2.536,-4.014,-3.160,-2.548,-3.591,-3.013,-2.586,-2.352,-2.981,-3.075,-2.793,-3.719,-3.479,-3.556,-2.384
23.362,19.133,23.862,20.618,18.053,24.052,21.996,19.750,19.051,17.401,20.888,19.697,24.025,22.030,21.080,22.750
42.120,34.246,44.105,37.924,32.530,44.060,39.999,35.726,34.299,31.663,37.951,36.244,43.655,40.345,38.910,39.818
45.036,36.926,46.823,40.654,34.994,47.309,42.836,38.761,36.659,33.465,40.907,38.871,47.087,43.261,41.834,42.961
32.688,27.045,33.549,28.854,25.755,33.782,31.036,28.489,26.637,23.979,29.579,28.109,34.051,31.508,30.296,31.395
11.942,9.777,12.765,10.628,9.801,11.915,11.689,10.568,10.512,9.354,11.256,10.309,13.352,11.920,11.116,12.713
-6.037,-4.617,-6.150,-6.217,-4.358,-6.841,-5.835,-4.838,-4.236,-4.678,-5.569,-5.457,-5.660,-5.467,-6.149,-4.937
-15.379,-11.837,-15.719,-14.608,-11.697,-16.106,-14.954,-12.955,-11.867,-11.661,-14.091,-13.258,-15.421,-14.404,-14.527,-13.823
-14.669,-11.326,-14.920,-14.135,-10.936,-15.697,-14.320,-12.483,-11.575,-10.933,-13.596,-12.711,-14.784,-14.650,-14.052,-12.925
-8.932,-6.484,-8.215,-8.561,-6.798,-9.338,-8.214,-6.940,-6.776,-6.940,-8.310,-7.393,-8.427,-8.595,-8.258,-7.129
-3.058,-1.606,-2.226,-3.105,-2.270,-3.310,-2.646,-2.567,-1.695,-2.198,-3.214,-2.706,-2.092,-2.732,-2.941,-1.881
-0.228,0.089,0.276,-0.721,-0.137,-0.689,-0.650,-0.251,0.191,-0.377,-0.498,-0.721,0.084,-0.529,-0.562,0.240
0.220,0.442,0.649,-0.543,0.044,-0.271,0.009,-0.081,0.008,-0.479,-0.214,-0.295,0.178,-0.133,-0.229,0.428
1.904,1.789,2.761,0.753,1.095,1.162,1.427,1.082,1.350,0.490,1.306,0.821,1.791,1.193,1.010,2.431
6.353,5.475,7.214,5.612,4.827,6.076,6.242,5.354,4.912,4.490,6.068,5.131,6.651,5.579,5.595,6.759
13.321,11.076,13.635,11.811,9.888,13.108,12.424,11.107,10.654,9.367,11.561,11.028,13.663,11.762,12.424,12.590
16.749,14.006,16.843,14.570,12.453,16.199,15.499,13.643,12.807,11.581,14.376,13.641,17.106,14.957,14.847,15.537
10.330,9.168,10.828,8.975,8.119,10.282,10.094,8.354,7.805,7.749,9.370,8.183,10.628,9.781,9.320,9.965
-5.580,-3.400,-5.577,-5.267,-4.514,-6.449,-4.975,-4.948,-5.296,-4.147,-4.783,-5.369,-5.349,-5.612,-5.272,-4.486
-25.624,-20.386,-27.048,-24.122,-20.350,-28.059,-25.086,-22.921,-21.477,-19.793,-23.845,-22.867,-27.616,-25.552,-25.358,-24.010
-41.745,-33.836,-43.618,-39.039,-33.167,-45.044,-40.625,-36.586,-34.220,-31.807,-38.624,-36.988,-43.993,-40.771,-40.595,-38.985
-44.652,-35.843,-46.187,-41.342,-34.815,-47.811,-43.223,-39.101,-36.312,-33.265,-40.732,-39.082,-46.698,-43.393,-42.995,-41.178
-30.723,-24.425,-31.862,-28.494,-24.071,-33.195,-29.583,-26.544,-24.876,-23.034,-28.768,-27.002,-32.243,-30.255,-29.081,-27.973
-5.846,-3.757,-5.480,-5.444,-4.723,-6.560,-5.117,-5.113,-4.397,-4.014,-5.879,-5.096,-5.324,-5.807,-5.030,-3.995
18.943,16.050,20.172,16.956,14.463,19.376,18.291,15.927,15.367,13.976,16.649,16.531,20.331,18.032,18.082,19.199
30.214,25.336,32.181,27.238,23.223,31.372,29.344,26.303,24.924,22.645,27.366,26.580,32.632,29.515,29.050,29.989
22.333,18.584,23.691,20.610,17.206,23.440,21.547,19.010,18.189,17.549,20.232,19.948,24.370,21.717,22.012,22.221
-1.415,-0.472,-1.458,-1.179,-1.183,-1.768,-1.404,-1.248,-0.821,-0.331,-1.425,-1.369,-1.130,-1.039,-0.778,-0.216
-30.133,-24.276,-31.336,-27.472,-23.278,-31.765,-29.052,-25.847,-23.902,-22.392,-27.477,-26.088,-31.537,-28.811,-28.494,-27.126
-50.169,-40.545,-52.806,-46.321,-39.198,-53.201,-48.371,-43.633,-40.720,-37.766,-46.385,-43.612,-52.755,-48.532,-47.842,-46.478
-53.361,-43.756,-56.516,-49.126,-41.549,-56.602,-51.202,-46.123,-42.991,-40.470,-49.484,-45.974,-55.976,-51.850,-51.569,-49.749
-40.254,-32.559,-41.884,-36.713,-30.809,-42.895,-38.383,-34.491,-32.282,-29.700,-37.081,-34.528,-41.630,-38.494,-38.325,-36.544
-18.009,-14.616,-18.605,-16.321,-13.484,-18.851,-17.029,-15.455,-14.161,-12.948,-16.779,-15.215,-17.823,-16.624,-17.158,-15.833
1.716,1.302,2.723,2.102,1.662,1.659,2.066,1.295,1.869,1.954,1.624,1.831,2.866,2.231,1.668,3.167
11.444,9.062,12.307,10.374,9.221,11.025,11.291,9.565,9.080,8.901,9.749,9.661,11.803,11.159,10.382,11.229
8.436,6.747,8.872,7.842,6.618,8.037,8.178,7.135,6.945,6.661,7.061,7.379,9.042,7.958,6.873,8.397
-2.363,-1.797,-1.982,-2.376,-1.977,-3.091,-2.016,-2.264,-1.485,-1.664,-2.785,-1.602,-1.715,-2.700,-2.852,-1.630
-13.619,-10.764,-13.483,-12.119,-10.464,-14.916,-12.484,-11.309,-10.192,-10.338,-12.548,-11.477,-13.213,-13.364,-13.045,-12.031
-19.824,-15.820,-20.461,-18.332,-15.137,-21.461,-18.711,-17.037,-15.570,-15.025,-18.184,-17.077,-19.950,-19.526,-19.005,-18.058
-21.125,-17.295,-21.745,-19.315,-16.106,-23.125,-20.007,-18.571,-16.852,-16.054,-19.584,-18.362,-21.435,-20.902,-20.263,-19.090
-20.756,-16.604,-21.298,-18.563,-15.700,-22.115,-20.060,-18.562,-16.948,-15.636,-19.121,-17.953,-21.430,-20.263,-19.784,-18.824
-21.558,-17.623,-22.308,-19.521,-16.859,-23.114,-20.997,-18.889,-17.513,-16.291,-19.600,-19.027,-22.537,-21.416,-20.784,-20.232
-24.780,-19.738,-25.074,-21.999,-19.212,-26.198,-23.401,-21.337,-19.455,-18.373,-22.217,-21.632,-25.173,-24.057,-23.372,-22.586
-25.808,-20.786,-25.935,-22.926,-19.373,-27.851,-24.755,-22.236,-20.377,-19.057,-23.117,-22.877,-26.066,-24.980,-24.294,-23.358
-20.615,-16.505,-21.144,-18.966,-15.652,-22.552,-19.604,-17.629,-16.760,-15.487,-18.413,-18.095,-20.915,-20.343,-19.941,-18.609
-8.241,-6.521,-7.985,-7.218,-5.850,-9.185,-7.176,-6.565,-6.035,-6.004,-6.878,-7.178,-7.863,-7.808,-7.637,-6.992
9.117,7.079,10.004,7.805,7.142,8.562,8.687,8.194,7.112,6.771,8.544,7.693,9.910,8.326,8.044,9.191
21.838,17.711,23.636,19.649,17.486,22.793,21.475,18.953,18.001,16.288,20.331,19.465,23.677,21.013,20.558,21.234
23.141,19.177,25.035,21.138,18.737,24.044,23.112,20.295,19.375,17.411,21.299,20.565,25.175,22.222,22.297,23.209
10.119,8.607,11.084,9.034,8.234,10.402,10.214,9.126,8.413,7.411,9.763,9.095,11.217,9.283,10.087,10.617
-13.024,-10.429,-13.035,-11.792,-9.737,-13.929,-12.563,-11.077,-10.418,-10.379,-11.304,-10.918,-13.351,-12.959,-12.368,-11.542
-35.397,-28.010,-35.987,-32.070,-27.140,-37.533,-33.612,-30.130,-28.415,-26.498,-31.832,-30.436,-36.868,-34.614,-33.680,-32.606
-44.938,-36.315,-46.325,-40.783,-34.597,-48.032,-43.023,-38.298,-35.805,-33.955,-40.532,-38.326,-46.799,-43.402,-42.735,-40.972
-35.109,-28.241,-36.690,-31.991,-26.724,-37.741,-34.172,-29.918,-27.986,-26.555,-32.182,-30.691,-36.696,-34.417,-33.849,-32.097
-10.261,-8.381,-9.960,-9.151,-7.341,-11.587,-9.851,-8.337,-8.066,-7.814,-9.356,-8.781,-10.266,-9.815,-10.282,-8.392
49.817,41.024,53.313,45.574,39.392,51.700,48.178,43.336,40.674,37.270,45.499,43.615,52.731,47.711,47.189,47.999
70.482,58.122,75.263,64.451,55.535,74.145,68.134,61.760,57.176,53.344,64.135,61.835,74.876,67.761,66.892,67.999
73.338,60.347,78.325,67.465,57.852,77.182,70.715,64.122,59.428,55.426,67.384,64.281,78.120,71.304,69.555,70.634
28.708,23.730,30.955,26.389,22.684,29.542,27.052,25.459,23.332,21.561,26.020,24.784,30.095,27.246,26.779,28.214
4.462,4.081,5.810,4.358,3.684,4.483,4.200,4.656,4.031,3.577,4.361,3.606,4.813,4.274,4.524,5.879
-16.614,-13.400,-16.174,-14.767,-12.081,-17.251,-15.943,-13.197,-12.722,-12.292,-14.810,-14.655,-17.556,-15.918,-15.450,-14.164
-25.327,-19.975,-24.895,-22.948,-19.001,-26.462,-24.181,-20.350,-19.919,-18.766,-22.752,-22.427,-26.456,-24.270,-23.679,-21.930
-19.539,-14.877,-18.561,-17.361,-14.525,-19.837,-18.373,-15.102,-14.818,-14.772,-17.052,-16.900,-20.010,-18.122,-17.571,-16.566
-3.799,-2.640,-2.503,-3.608,-2.469,-3.782,-3.714,-2.388,-2.633,-3.087,-2.947,-2.959,-3.610,-3.154,-2.930,-2.244
12.798,10.500,14.187,11.605,10.111,13.606,12.196,11.488,10.262,8.824,11.601,10.578,13.267,12.243,12.630,13.634
22.625,18.433,24.793,20.945,18.197,24.053,22.110,20.278,19.032,16.788,20.594,19.451,24.427,22.119,22.237,23.012
25.575,20.490,27.095,23.130,20.351,26.518,24.465,22.226,20.969,18.777,23.113,21.271,27.161,24.609,24.934,25.237
23.204,19.318,24.614,21.504,18.086,23.750,22.238,21.001,19.159,17.342,21.364,19.537,24.730,22.526,22.841,22.937
21.073,16.948,22.039,19.669,16.468,21.279,20.206,18.691,17.460,15.778,19.176,17.386,21.820,20.360,20.402,20.865
20.263,16.855,21.874,19.312,16.459,20.709,19.772,18.673,17.161,15.999,18.942,17.260,21.517,20.176,20.287,20.903
20.586,17.070,22.147,19.387,16.490,21.255,20.097,18.664,17.680,15.269,19.019,17.579,22.006,20.494,20.539,20.766
18.046,14.776,19.216,16.473,14.443,18.399,17.219,15.764,15.461,13.726,16.016,15.355,19.154,17.720,17.375,18.169
9.684,7.911,10.724,9.132,8.267,9.729,9.469,8.454,8.765,7.531,8.685,8.135,10.578,9.786,9.459,10.046
-2.032,-1.525,-1.443,-1.342,-1.085,-1.502,-1.586,-1.026,-0.746,-1.709,-1.815,-1.967,-1.435,-1.178,-1.462,-0.942
-10.865,-8.432,-10.459,-9.345,-8.173,-11.283,-10.606,-8.479,-8.098,-7.918,-9.837,-9.568,-11.012,-10.303,-9.964,-8.864
-10.495,-7.810,-9.909,-8.907,-7.504,-10.877,-9.773,-8.010,-7.762,-7.288,-8.962,-9.272,-9.954,-9.935,-9.520,-8.210
3.336,2.913,3.665,2.825,2.706,2.725,3.145,3.988,2.926,3.133,2.681,2.338,3.452,3.417,3.389,4.412
24.827,20.930,26.828,22.920,19.993,25.995,23.795,22.080,20.872,19.568,22.319,21.529,26.431,24.367,23.969,24.961
45.607,37.814,48.248,42.246,35.371,47.759,43.570,39.777,37.265,34.828,41.020,39.273,48.373,44.163,43.798,43.661
53.987,44.620,57.491,50.298,42.183,56.767,51.940,47.105,44.226,41.278,48.906,46.816,57.441,52.542,51.865,51.731
44.791,37.338,47.489,41.658,34.522,46.785,42.814,39.436,36.706,33.860,40.311,38.414,47.847,43.951,43.172,43.236
20.076,17.122,21.787,19.233,15.628,21.104,19.474,18.470,16.953,15.587,18.020,17.219,22.160,20.182,19.846,20.531
-8.164,-6.219,-8.526,-6.897,-6.524,-8.591,-7.861,-5.951,-5.986,-5.984,-7.964,-7.862,-8.253,-7.629,-7.274,-6.715
-27.788,-22.275,-28.960,-24.725,-21.491,-29.548,-26.541,-22.588,-21.957,-20.424,-25.373,-25.415,-28.299,-26.772,-25.932,-24.714
-28.693,-22.893,-29.952,-26.212,-22.492,-31.095,-27.714,-23.836,-23.107,-21.557,-26.488,-26.148,-29.985,-27.575,-27.348,-25.970
-12.036,-9.510,-12.324,-10.617,-9.362,-13.253,-11.497,-9.611,-9.660,-8.807,-11.393,-10.758,-12.277,-11.572,-11.038,-10.066
14.185,11.876,15.379,13.984,10.872,14.508,13.881,13.233,11.584,10.841,12.603,12.077,15.282,14.144,14.130,14.438
36.310,30.145,39.104,34.945,28.435,38.773,35.716,32.607,30.033,27.639,33.290,31.865,38.980,36.146,35.672,36.226
44.843,37.014,48.356,42.662,35.057,47.826,43.831,39.783,37.171,34.217,41.142,39.461,48.059,43.979,44.092,44.006
36.941,30.597,40.330,35.041,29.054,39.543,36.559,33.355,30.492,28.031,34.074,32.837,39.497,36.456,36.355,36.381
18.919,15.246,20.533,17.980,14.710,19.494,18.111,17.339,15.602,13.850,16.849,16.435,20.111,18.653,18.448,18.910
-1.503,-0.788,-0.662,-0.317,-1.048,-1.025,-1.139,0.211,-0.382,-1.200,-1.311,-0.954,-0.796,-0.506,-0.286,0.061
-13.809,-11.040,-13.741,-11.593,-10.787,-14.472,-13.235,-10.602,-11.067,-10.365,-12.830,-12.088,-13.884,-12.698,-12.117,-11.789
-15.783,-13.093,-15.988,-13.316,-12.824,-16.795,-15.585,-12.751,-12.699,-12.058,-15.329,-14.149,-15.991,-15.040,-14.622,-13.854
-11.338,-9.368,-11.164,-9.385,-8.604,-11.850,-10.660,-8.675,-8.786,-8.592,-10.800,-10.043,-10.846,-10.527,-9.838,-9.578
-4.639,-4.660,-4.353,-3.488,-3.405,-5.334,-4.591,-3.130,-3.613,-3.628,-4.695,-4.279,-4.089,-4.672,-3.445,-3.629
-1.169,-1.123,-0.569,-0.387,-0.070,-0.951,-0.623,0.353,-0.811,-0.719,-1.068,-1.160,0.022,-0.951,-0.010,-0.130
-0.591,-0.264,-0.008,0.762,0.404,-0.409,-0.128,0.481,0.013,-0.296,-0.342,-0.478,0.858,-0.243,0.860,0.495
0.218,0.231,0.955,1.519,0.874,0.533,0.620,1.244,0.605,0.652,1.059,0.394,1.208,0.162,1.014,1.715
3.790,2.990,5.095,4.773,4.049,4.519,4.044,4.480,3.655,3.090,4.864,3.476,5.312,3.611,4.496,5.034
10.640,8.160,11.725,10.265,8.866,10.738,10.427,9.873,8.842,7.776,10.445,8.979,11.740,9.967,10.303,11.101
15.272,12.229,17.149,14.455,12.899,16.239,14.766,13.596,12.748,11.141,14.547,13.165,17.332,14.715,15.080,16.091
12.737,10.298,14.337,12.505,10.441,13.403,12.501,11.338,11.114,9.499,12.418,11.115,14.851,12.697,12.744,13.281
0.320,-0.002,0.992,1.168,0.800,-0.067,0.306,0.299,0.939,0.030,0.644,0.201,1.193,0.504,0.565,1.001
-20.108,-16.179,-19.664,-16.683,-15.196,-20.607,-18.907,-16.825,-15.512,-14.943,-17.262,-17.148,-20.090,-18.718,-17.907,-17.507
-38.276,-31.508,-39.038,-34.295,-29.680,-40.510,-36.971,-32.623,-30.809,-29.462,-34.400,-33.103,-40.292,-36.649,-35.805,-34.959
-45.679,-38.038,-47.513,-41.788,-36.193,-49.094,-44.395,-39.447,-37.352,-35.370,-41.520,-40.184,-48.139,-44.417,-43.089,-42.199
-37.499,-30.333,-38.347,-33.522,-28.699,-39.708,-36.282,-31.589,-30.070,-28.307,-33.740,-32.375,-39.016,-36.059,-35.057,-34.165
-15.072,-11.920,-14.853,-12.806,-11.765,-16.004,-14.104,-12.283,-12.007,-11.348,-13.191,-12.411,-14.955,-14.156,-13.365,-13.240
11.426,9.366,13.046,11.408,8.839,11.658,11.326,10.299,9.721,8.431,10.616,9.916,12.708,11.334,11.331,11.680
28.176,23.171,30.746,26.519,21.886,29.610,27.200,24.654,23.393,21.313,26.034,24.947,30.376,28.097,27.062,27.868
27.204,22.315,29.497,25.607,21.075,28.436,26.084,24.022,22.129,20.316,24.753,23.982,28.881,26.810,26.266,26.279
7.701,6.421,8.858,7.679,6.027,8.254,7.144,7.520,6.320,5.427,6.879,6.970,8.605,7.681,8.030,7.542
-20.828,-17.303,-21.167,-18.790,-16.666,-22.164,-19.889,-17.528,-16.934,-16.601,-19.387,-18.237,-22.060,-19.737,-19.347,-19.292
-45.182,-37.094,-46.436,-40.814,-35.528,-48.170,-43.470,-38.806,-36.752,-34.763,-41.555,-39.497,-47.460,-43.428,-42.774,-42.077
-54.515,-44.410,-56.832,-49.744,-42.510,-58.321,-52.497,-46.447,-44.335,-42.100,-50.239,-48.021,-56.968,-52.842,-51.677,-50.726
-46.346,-37.542,-47.668,-41.835,-35.792,-49.250,-44.451,-39.551,-37.387,-34.916,-42.268,-40.418,-48.058,-44.497,-43.258,-42.546
-25.599,-20.174,-26.166,-23.009,-19.536,-27.510,-24.646,-21.694,-20.839,-19.574,-23.376,-22.008,-26.695,-24.353,-23.674,-23.430
-3.912,-2.919,-3.468,-2.680,-2.670,-4.311,-3.701,-3.203,-3.161,-3.303,-3.730,-3.108,-3.687,-3.358,-2.851,-2.696
9.566,8.216,10.405,9.761,7.857,9.614,9.312,7.644,7.374,6.759,7.957,8.258,9.974,9.234,10.246,9.154
9.920,8.488,11.599,10.126,8.268,10.524,9.717,8.880,8.420,7.304,8.800,8.961,10.796,9.543,10.332,9.575
1.331,1.676,2.236,1.320,1.778,1.207,1.199,1.063,1.527,0.317,1.074,0.987,1.434,1.309,1.539,1.128
-10.273,-8.260,-9.543,-8.943,-7.367,-11.424,-10.103,-8.506,-8.222,-7.665,-9.632,-9.179,-10.388,-9.906,-9.753,-9.168
-18.629,-14.485,-18.478,-16.406,-13.929,-20.004,-17.461,-15.603,-14.873,-14.172,-17.202,-16.427,-19.007,-18.017,-16.996,-16.941
-21.289,-17.052,-21.685,-18.848,-16.107,-23.159,-20.606,-18.082,-17.487,-16.072,-19.567,-18.933,-22.354,-20.559,-19.834,-19.636
-20.957,-16.673,-21.708,-19.203,-15.714,-22.777,-20.473,-17.687,-17.129,-15.938,-19.376,-18.712,-21.956,-20.291,-19.460,-19.203
-21.208,-16.824,-21.705,-19.255,-16.055,-23.027,-20.622,-18.423,-17.165,-15.964,-19.967,-18.940,-22.390,-20.546,-19.618,-19.427
-23.570,-18.927,-24.294,-21.448,-17.684,-25.400,-22.998,-20.028,-18.525,-17.628,-21.960,-20.946,-25.129,-22.469,-21.857,-21.624
-26.194,-20.318,-26.902,-23.752,-19.815,-27.412,-25.078,-22.306,-20.485,-19.551,-23.715,-22.850,-27.435,-24.849,-23.790,-23.861
-23.391,-18.376,-24.099,-21.462,-18.169,-24.867,-22.578,-20.344,-18.450,-17.678,-21.301,-20.389,-24.778,-22.289,-21.246,-21.952
-13.590,-9.700,-13.283,-11.863,-10.271,-13.598,-12.499,-11.484,-10.160,-9.716,-11.553,-11.663,-13.898,-12.604,-11.609,-11.497
2.980,3.032,4.136,2.762,2.465,3.604,3.169,2.266,3.175,2.171,3.015,2.800,3.371,3.115,3.637,3.387
18.169,15.425,20.189,16.805,14.217,19.888,17.693,15.772,15.451,14.125,16.755,16.210,19.573,18.185,18.521,17.862
24.099,20.458,26.190,22.808,18.576,25.377,23.283,20.558,20.185,18.250,22.552,21.210,25.775,23.751,24.071,24.001
15.923,13.439,16.811,14.904,12.004,16.703,15.345,13.704,12.927,12.088,14.440,13.523,17.109,15.685,15.997,16.076
-4.574,-3.364,-4.712,-3.675,-4.059,-5.205,-4.992,-4.448,-3.742,-4.051,-3.987,-4.242,-5.083,-4.821,-4.112,-4.153
-28.369,-22.833,-29.657,-25.928,-22.683,-30.466,-27.714,-24.679,-23.154,-21.851,-26.311,-25.285,-30.226,-27.655,-26.507,-26.613
-43.484,-34.516,-45.657,-39.750,-34.574,-46.252,-42.114,-37.343,-35.199,-32.379,-40.118,-38.175,-45.505,-41.801,-40.875,-40.337
-40.337,-32.451,-42.430,-36.253,-31.701,-42.371,-39.570,-34.694,-32.466,-30.669,-37.183,-35.146,-42.217,-39.039,-37.833,-38.142
-19.895,-15.362,-20.718,-17.342,-15.392,-20.381,-19.218,-16.343,-15.700,-14.656,-18.435,-17.276,-20.629,-18.932,-18.318,-18.332
39.684,33.266,42.481,37.673,31.300,42.801,38.529,34.716,33.422,30.949,36.307,35.575,42.731,38.821,38.419,38.077
64.644,53.751,68.974,60.714,50.702,69.393,62.555,56.504,53.166,49.876,59.703,57.300,69.260,63.721,62.381,62.082
73.776,61.323,78.504,69.542,58.440,79.053,71.554,64.520,61.317,56.694,67.975,65.529,78.813,72.303,71.627,70.716
64.372,53.653,68.353,60.778,51.108,69.168,62.393,56.130,53.694,49.595,59.291,57.331,68.695,63.371,62.496,61.902
12.184,10.799,13.498,12.358,9.766,13.960,11.765,10.921,10.715,10.081,11.949,11.628,13.901,12.749,12.567,11.869
-10.640,-8.692,-10.948,-8.657,-8.355,-11.165,-10.181,-9.370,-7.920,-7.133,-9.606,-8.889,-10.661,-9.792,-9.876,-10.091
-24.422,-19.276,-24.654,-21.070,-18.381,-25.398,-23.276,-21.069,-19.064,-17.154,-21.713,-20.573,-24.560,-22.733,-22.358,-21.942
-22.731,-18.448,-23.457,-20.087,-17.469,-23.882,-22.060,-19.237,-17.774,-15.947,-20.445,-19.203,-23.495,-21.103,-20.818,-20.607
-9.481,-7.449,-9.819,-7.875,-7.123,-10.264,-9.462,-7.978,-6.795,-5.864,-9.025,-7.683,-9.524,-8.193,-8.199,-8.209
7.377,6.604,8.236,7.583,6.083,7.788,7.123,6.971,6.305,6.809,7.245,6.929,8.127,7.817,7.950,7.815
19.716,16.557,21.120,19.175,15.770,20.862,19.507,17.778,16.503,16.517,18.986,17.687,21.820,20.168,19.687,19.718
24.350,20.908,26.476,23.659,19.618,26.101,23.859,22.013,20.366,20.272,23.454,22.328,27.035,25.186,24.818,24.065
23.742,20.224,25.482,22.857,19.355,25.286,22.803,20.745,19.582,19.436,22.337,21.395,26.159,24.195,23.458,23.195
20.948,17.896,22.369,20.239,17.172,22.191,20.102,18.009,17.468,17.014,19.555,18.815,23.222,21.223,20.981,20.389
20.343,16.649,21.622,18.566,16.515,21.479,19.048,17.326,16.376,16.784,18.738,18.281,22.475,20.446,19.738,19.536
20.445,16.923,22.111,19.420,16.689,21.866,19.592,17.770,16.842,16.780,19.359,18.638,22.929,20.878,20.236,19.974
18.982,16.390,20.434,17.695,15.751,20.667,18.086,16.414,15.875,15.317,18.351,17.188,21.568,19.500,18.911,19.351
12.730,10.741,14.401,12.335,10.812,13.842,12.244,10.966,10.707,10.873,12.623,11.487,14.278,13.305,13.131,12.778
1.476,1.851,2.826,2.227,2.332,2.186,1.947,1.415,2.036,2.437,2.780,1.781,2.961,2.744,2.950,2.334
-8.836,-7.105,-8.731,-7.075,-6.176,-9.202,-8.372,-7.686,-6.706,-5.356,-7.429,-7.068,-8.527,-7.462,-7.162,-7.616
-11.964,-9.667,-12.034,-10.458,-8.471,-12.542,-11.695,-10.196,-9.286,-7.828,-10.078,-9.460,-11.995,-10.504,-10.355,-11.132
-3.277,-1.989,-2.538,-2.475,-1.587,-2.759,-2.886,-2.363,-1.738,-0.762,-1.987,-1.762,-2.144,-1.840,-1.915,-2.133
16.968,14.345,18.427,15.233,14.236,18.582,16.430,14.637,14.286,14.391,16.212,15.414,18.555,17.667,17.113,17.103
39.327,31.952,41.826,35.896,31.344,41.800,38.014,34.053,31.673,30.795,36.381,34.882,41.625,39.299,38.085,38.233
52.659,42.778,56.220,48.433,41.926,56.090,50.943,45.867,42.835,40.490,48.961,46.545,56.440,52.521,51.247,50.560
49.191,40.604,52.547,45.562,39.241,52.525,47.591,42.792,40.490,38.612,45.930,43.896,52.807,49.549,48.344,47.432
29.467,24.347,31.463,27.226,23.673,31.032,28.541,25.854,24.043,22.977,27.873,26.151,31.360,29.684,28.814,27.999
0.543,0.742,1.111,0.645,1.430,0.870,0.879,1.357,0.559,1.478,1.804,0.849,1.542,1.450,1.440,0.427
-23.319,-18.685,-24.121,-20.802,-17.573,-24.188,-22.087,-19.193,-18.605,-16.695,-20.228,-20.139,-23.634,-21.586,-21.574,-21.278
-30.604,-25.323,-32.237,-28.363,-23.732,-32.411,-29.845,-26.262,-24.796,-22.600,-27.448,-26.714,-31.937,-29.092,-28.889,-28.356
-19.504,-16.257,-19.966,-17.826,-14.357,-20.649,-18.500,-16.825,-15.254,-13.788,-17.654,-16.887,-19.869,-17.919,-17.929,-17.754
5.180,3.990,5.556,4.718,4.602,5.324,4.692,4.838,4.324,4.367,4.839,4.472,6.097,5.327,5.789,4.942
30.348,24.794,32.091,27.911,23.763,32.037,29.185,27.073,24.605,23.840,27.635,26.796,32.755,29.934,29.771,28.635
44.201,36.366,46.816,40.888,34.347,47.340,42.703,38.624,36.249,33.982,40.107,38.820,47.398,43.374,43.164,41.806
41.329,34.487,44.337,38.277,32.581,44.478,40.618,36.496,33.664,32.211,38.020,36.340,44.885,41.388,40.505,39.644
25.316,21.199,27.591,23.612,19.771,27.452,25.010,23.173,20.830,20.391,23.339,22.605,27.606,25.851,25.330,24.827
5.096,4.612,5.884,4.668,3.561,5.700,4.948,5.268,3.867,4.311,4.556,4.617,5.624,5.770,5.727,5.180
-10.492,-8.099,-10.280,-10.008,-8.458,-10.560,-9.971,-8.146,-8.582,-7.507,-9.672,-9.076,-10.540,-9.504,-9.419,-9.776
-15.625,-12.802,-16.234,-15.360,-12.642,-16.791,-15.805,-13.235,-12.756,-11.828,-14.736,-14.318,-16.258,-15.017,-14.601,-14.565
-13.269,-10.391,-13.316,-12.800,-10.019,-13.602,-13.125,-10.688,-10.427,-9.860,-11.843,-11.801,-13.178,-11.738,-11.830,-12.073
-6.775,-4.950,-6.397,-6.990,-5.359,-6.948,-6.595,-5.222,-5.471,-5.028,-5.961,-5.856,-6.025,-5.526,-5.266,-6.089
-1.793,-1.192,-1.484,-2.065,-1.214,-1.713,-1.817,-0.685,-1.276,-1.300,-1.490,-1.683,-0.877,-0.358,-0.749,-1.665
-0.293,0.086,0.337,-0.827,0.002,0.025,-0.376,0.293,0.185,-0.309,-0.034,-0.444,0.473,0.963,0.655,0.098
0.109,0.472,0.649,-0.410,0.060,0.358,-0.102,0.656,0.356,0.473,0.029,-0.058,0.741,0.855,1.028,0.353
2.710,2.339,3.628,1.713,2.389,2.668,2.476,2.797,2.302,2.387,2.627,1.980,3.638,3.269,3.348,2.176
8.701,7.099,9.460,7.289,6.833,8.826,8.066,7.853,6.657,6.374,7.869,7.739,9.894,8.949,8.808,8.299
14.547,12.248,15.732,12.814,11.312,14.791,13.855,12.731,11.555,11.220,13.578,12.963,15.918,15.148,14.395,13.784
14.672,12.747,16.748,12.872,11.575,15.547,14.180,13.527,12.593,11.805,14.095,13.213,17.070,15.279,14.935,14.520
6.118,4.966,7.176,4.740,4.514,6.118,5.358,5.459,4.480,4.729,5.844,5.525,7.096,6.307,6.006,6.044
-12.352,-9.855,-12.331,-11.509,-9.671,-12.648,-11.986,-10.711,-10.292,-8.480,-10.815,-10.376,-12.389,-10.901,-11.436,-10.999
-32.702,-26.650,-33.280,-30.396,-25.265,-34.258,-31.313,-28.036,-26.954,-24.243,-29.416,-28.479,-33.387,-30.551,-30.566,-29.962
-45.113,-36.689,-46.608,-41.932,-34.936,-47.456,-43.350,-39.142,-36.879,-33.535,-40.569,-39.027,-46.892,-42.621,-42.078,-41.747
-41.681,-34.053,-43.745,-38.978,-32.188,-44.251,-40.298,-36.230,-34.517,-31.304,-38.125,-36.737,-43.574,-39.552,-39.227,-39.014
-23.492,-18.500,-24.027,-22.149,-17.992,-24.418,-22.250,-20.279,-19.673,-17.150,-21.550,-20.074,-24.131,-21.536,-21.325,-20.997
3.019,2.795,3.748,2.255,2.805,3.340,2.803,2.644,2.015,2.639,2.764,3.150,3.388,4.087,3.820,3.751
24.528,20.473,26.712,22.189,19.106,25.893,23.548,21.239,19.188,19.086,22.093,21.502,26.156,24.449,23.806,23.704
30.060,24.320,31.986,27.369,23.648,31.830,28.534,25.792,23.702,22.740,27.033,25.923,31.450,29.918,29.524,28.717
16.034,12.910,16.988,14.166,13.118,16.847,15.052,13.883,12.129,12.170,14.603,13.802,17.191,16.268,15.769,15.715
-10.947,-8.854,-11.335,-10.766,-7.688,-11.431,-11.070,-9.513,-9.830,-7.537,-10.062,-10.085,-11.500,-9.771,-10.075,-9.302
-37.846,-30.884,-39.925,-35.637,-28.998,-40.483,-37.173,-32.932,-31.810,-28.105,-34.812,-33.636,-40.265,-36.353,-35.715,-35.411
-53.280,-43.622,-55.995,-49.193,-41.214,-56.718,-51.929,-45.875,-43.960,-39.444,-48.497,-46.962,-56.663,-51.476,-50.019,-50.103
-50.579,-41.614,-52.938,-46.466,-38.967,-53.923,-49.116,-43.517,-41.503,-37.603,-46.251,-44.208,-53.823,-48.973,-47.322,-47.829
-32.901,-27.305,-33.875,-29.976,-25.372,-35.177,-32.302,-28.647,-26.963,-24.671,-30.061,-28.817,-34.877,-31.369,-30.751,-31.181
-10.122,-8.557,-10.245,-9.588,-7.869,-11.211,-10.381,-8.818,-8.702,-7.445,-9.783,-9.279,-10.707,-9.360,-9.489,-9.333
6.357,5.427,7.246,5.829,5.297,6.625,5.804,5.764,5.087,5.075,5.699,5.346,7.265,6.940,6.592,6.478
11.193,9.269,12.172,10.042,9.114,11.328,10.745,9.615,9.091,9.340,10.395,9.532,11.838,11.940,11.245,11.658
5.138,4.369,5.419,4.344,4.093,4.977,4.649,4.411,4.347,4.406,4.296,3.952,5.396,5.324,5.358,6.067
-6.569,-5.168,-6.465,-6.159,-4.747,-7.182,-6.736,-5.095,-5.426,-4.281,-6.107,-5.909,-6.549,-5.955,-5.929,-4.615
-16.339,-13.067,-16.615,-14.856,-12.649,-17.379,-15.878,-13.754,-13.321,-11.622,-14.573,-14.611,-16.920,-15.077,-15.263,-14.124
-20.883,-16.830,-21.500,-18.583,-16.708,-21.821,-20.338,-17.599,-16.658,-15.055,-18.456,-18.747,-21.566,-19.852,-19.223,-18.545
-21.301,-17.303,-21.914,-18.486,-16.276,-22.034,-20.309,-18.059,-16.797,-15.433,-18.871,-18.652,-22.184,-20.370,-19.414,-19.140
-21.446,-17.169,-21.851,-18.783,-16.315,-21.794,-19.889,-17.914,-16.731,-14.480,-19.123,-18.334,-21.578,-20.162,-19.413,-18.962
-22.437,-18.522,-23.572,-20.688,-18.049,-23.652,-21.945,-19.290,-18.064,-16.081,-20.474,-19.794,-23.599,-21.740,-21.018,-20.810
-25.299,-20.871,-26.261,-23.054,-19.660,-27.100,-24.631,-22.084,-20.598,-18.336,-23.062,-21.563,-26.641,-24.168,-23.412,-23.435
-24.838,-20.038,-25.856,-22.438,-19.312,-26.297,-23.910,-21.459,-19.818,-17.802,-22.855,-21.218,-25.840,-23.484,-22.743,-22.529
-17.108,-14.166,-17.961,-15.561,-13.886,-18.280,-16.452,-14.444,-14.092,-11.710,-15.998,-14.838,-18.108,-16.157,-15.482,-15.293
-2.240,-1.965,-2.835,-1.911,-2.286,-2.429,-2.323,-2.240,-2.273,-0.452,-2.311,-2.208,-2.803,-1.514,-1.638,-1.141
14.626,11.491,14.465,13.085,10.597,14.817,13.632,12.689,10.898,11.668,12.745,12.217,14.596,14.485,14.602,14.416
24.000,19.835,25.398,22.218,18.914,25.534,23.362,20.757,19.072,19.111,21.870,20.812,24.632,23.960,23.957,23.487
20.945,16.584,21.195,19.535,15.741,21.656,19.818,17.770,16.543,16.288,18.789,17.730,21.447,20.510,20.152,20.281
3.464,2.544,3.173,2.978,2.436,3.571,2.703,2.847,2.633,3.393,3.010,2.995,3.032,3.516,3.696,3.946
-21.144,-17.146,-21.857,-19.753,-16.776,-22.075,-20.325,-17.924,-17.230,-14.635,-19.004,-18.619,-22.266,-19.907,-19.289,-19.066
-39.903,-32.446,-42.302,-37.064,-31.480,-42.264,-38.897,-34.338,-32.379,-29.395,-36.551,-35.285,-42.524,-38.384,-37.536,-37.543
-43.176,-35.415,-45.972,-40.020,-33.995,-45.829,-42.277,-37.301,-35.235,-31.880,-39.815,-38.130,-46.088,-41.234,-40.624,-40.559
-27.932,-23.088,-29.740,-25.650,-22.579,-29.593,-27.363,-23.761,-23.043,-20.339,-25.477,-24.811,-29.973,-26.046,-26.081,-25.836
30.518,24.873,32.049,28.094,23.557,32.154,29.403,26.306,24.458,23.742,27.962,26.081,31.772,30.202,29.910,29.418
58.490,47.320,61.775,54.400,45.693,61.736,56.456,49.992,47.592,44.897,53.661,50.724,61.599,57.433,56.349,55.783
73.709,59.914,78.132,68.070,57.562,77.903,71.110,63.178,60.211,56.512,67.599,64.369,77.593,72.764,70.901,70.302
70.445,57.307,74.215,65.246,55.104,74.333,67.382,60.397,57.381,53.778,64.073,61.237,74.486,69.451,67.833,66.951
21.235,16.480,22.109,19.379,16.336,22.132,19.851,17.949,17.005,16.472,18.994,18.356,22.073,21.356,20.821,20.194
-2.805,-2.936,-3.437,-2.965,-2.833,-2.913,-3.206,-2.608,-3.213,-1.894,-3.076,-3.119,-3.195,-2.728,-2.189,-2.454
-20.773,-17.343,-21.907,-19.066,-16.523,-21.124,-19.918,-17.762,-16.962,-14.939,-19.212,-18.278,-21.213,-19.125,-18.750,-19.010
-24.246,-20.322,-25.622,-21.891,-19.148,-24.666,-23.114,-20.819,-20.011,-17.469,-22.372,-20.996,-25.036,-22.732,-22.234,-22.324
-13.849,-11.763,-15.150,-13.136,-11.755,-14.479,-13.874,-11.590,-11.849,-9.420,-13.131,-12.469,-14.827,-13.052,-12.770,-13.136
2.435,1.937,2.605,2.586,1.178,3.111,2.191,2.359,1.747,2.924,1.848,2.291,2.528,2.979,3.144,2.319
17.503,14.061,17.928,15.764,12.293,18.291,16.028,14.855,13.853,13.742,15.694,15.007,18.326,17.326,17.022,16.360
24.873,19.883,25.893,22.716,18.572,26.001,23.316,21.576,19.716,19.433,22.226,21.569,26.204,24.561,24.159,23.528
25.601,20.342,26.323,23.158,19.304,26.969,23.936,22.014,20.443,19.440,22.831,21.757,26.251,25.414,24.533,23.861
22.683,18.274,23.474,20.912,17.286,23.968,21.728,19.535,18.132,17.536,20.201,19.542,23.700,22.418,21.919,21.905
20.867,16.722,21.945,19.004,16.249,22.272,20.386,17.848,16.934,16.195,18.258,17.910,21.647,20.763,19.920,19.845
21.088,16.838,21.836,18.937,16.296,22.592,20.601,17.911,16.787,16.166,18.798,18.100,22.008,21.147,20.454,20.280
20.951,16.447,21.653,19.235,16.171,22.387,19.704,17.700,16.464,16.121,18.513,17.911,22.065,20.902,20.116,19.792
16.286,12.789,16.850,15.002,12.198,18.036,15.123,13.943,12.725,12.492,14.237,14.032,17.116,16.446,15.893,15.315
6.810,5.188,6.427,6.049,4.939,7.423,6.018,5.376,5.188,5.375,5.095,5.344,6.701,6.677,6.235,6.088
-4.942,-4.275,-5.353,-4.418,-3.388,-5.015,-4.775,-4.410,-4.586,-4.185,-5.323,-4.915,-5.364,-4.627,-4.867,-4.723
-11.324,-9.353,-11.900,-9.793,-8.507,-11.332,-11.027,-9.732,-9.454,-8.471,-10.642,-10.306,-12.304,-10.785,-11.019,-10.721
-6.514,-5.369,-6.954,-5.902,-5.217,-6.239,-6.506,-5.618,-5.725,-4.468,-6.474,-5.901,-6.872,-5.666,-6.459,-5.530
10.366,8.015,10.590,9.566,7.939,11.629,9.913,9.014,8.129,8.388,8.958,8.706,10.476,10.807,9.964,10.234
33.173,26.956,34.200,30.361,25.569,35.376,32.008,28.485,26.277,25.296,29.960,28.801,34.558,32.809,31.472,31.650
50.253,41.119,53.543,46.103,39.396,53.966,48.813,43.789,40.956,38.610,45.803,44.062,53.472,49.533,48.411,48.325
53.405,43.094,56.378,49.156,41.520,56.361,51.267,46.459,43.045,40.961,48.556,46.284,56.284,52.461,51.052,51.134
37.941,31.236,40.317,35.066,29.720,40.486,36.779,33.384,30.738,29.734,34.815,33.429,40.193,37.204,37.044,36.793
10.989,9.354,11.787,10.669,8.204,11.810,10.402,9.627,8.314,8.784,9.620,9.508,11.637,10.748,10.634,10.683
-15.628,-13.052,-16.710,-14.422,-12.802,-16.660,-15.726,-13.514,-13.202,-11.769,-14.442,-14.164,-17.345,-15.413,-14.923,-14.681
-29.627,-24.240,-31.734,-27.432,-23.794,-31.379,-28.971,-25.431,-24.339,-22.451,-26.807,-26.312,-31.715,-28.917,-27.841,-28.060
-24.352,-19.692,-26.323,-22.749,-19.668,-25.777,-23.742,-20.932,-19.732,-18.888,-22.209,-21.813,-26.159,-23.571,-22.764,-22.724
-3.481,-2.639,-3.882,-3.337,-2.929,-3.384,-3.446,-2.989,-2.800,-2.047,-2.881,-3.092,-3.546,-2.860,-2.283,-2.820
23.240,18.665,24.075,21.668,18.015,24.738,21.872,19.682,18.609,17.633,21.117,20.195,24.388,22.771,22.899,22.579
41.266,34.035,43.952,38.365,32.532,44.151,39.767,36.262,33.701,32.095,38.608,36.713,43.838,40.917,40.265,40.648
44.667,36.411,47.343,40.733,34.810,47.251,43.037,38.795,36.517,33.535,41.502,39.038,46.457,43.571,42.980,43.225
32.308,26.686,34.317,29.712,25.334,34.397,31.360,28.395,26.141,23.973,30.001,28.178,33.535,31.448,31.369,31.583
11.886,10.066,12.900,10.765,9.546,13.032,11.636,10.789,9.999,8.498,11.513,10.420,12.493,12.260,12.512,12.581
-6.226,-5.308,-6.179,-5.886,-4.847,-6.655,-5.914,-4.397,-5.009,-4.534,-4.980,-5.244,-7.108,-5.313,-5.011,-4.840
-15.422,-12.689,-16.055,-13.992,-11.978,-16.354,-14.360,-12.936,-12.272,-11.641,-13.394,-13.309,-16.546,-14.311,-13.881,-13.381
-15.157,-12.028,-15.490,-13.460,-11.790,-15.825,-14.068,-12.391,-12.197,-10.790,-12.855,-12.384,-15.935,-13.984,-13.214,-12.845
-8.789,-7.001,-8.872,-7.796,-7.398,-9.653,-8.197,-7.105,-7.133,-6.445,-7.792,-7.202,-9.419,-8.325,-7.419,-7.338
-3.407,-2.623,-2.590,-1.873,-2.968,-3.362,-2.776,-2.365,-2.199,-2.445,-2.648,-2.622,-3.341,-2.396,-1.765,-1.408
-0.694,-0.418,-0.143,0.139,-0.740,-0.452,-0.216,0.003,-0.264,-0.255,-0.538,-0.398,-0.442,0.264,0.325,0.588
-0.352,0.056,0.336,0.117,-0.775,-0.215,0.284,0.368,0.126,0.108,-0.558,0.283,-0.607,0.383,0.541,1.048
1.385,1.109,1.762,1.430,0.707,1.548,2.019,1.574,1.090,0.996,1.766,1.453,1.764,2.112,2.079,2.479
6.128,5.338,6.984,6.363,4.964,6.780,6.404,6.324,4.974,4.827,5.995,5.348,6.384,6.572,6.611,6.995
12.539,10.344,14.129,11.861,9.779,13.830,12.844,11.420,10.416,9.860,11.909,10.938,13.189,12.939,12.862,13.000
15.732,12.975,16.817,14.629,11.488,16.924,15.896,13.543,12.658,11.860,15.004,13.619,16.417,15.325,16.061,15.693
9.813,8.314,10.655,10.075,7.276,10.575,9.763,8.828,8.113,8.067,9.312,8.893,10.013,9.565,10.427,10.132
-5.338,-4.557,-5.660,-4.386,-4.697,-5.803,-5.151,-4.697,-4.317,-3.932,-4.690,-4.672,-6.139,-5.257,-4.918,-4.207
-26.370,-20.729,-27.625,-23.600,-20.978,-27.185,-24.770,-22.249,-20.988,-18.958,-23.580,-22.691,-28.046,-24.955,-24.423,-23.765
-42.661,-33.936,-44.068,-38.771,-33.712,-44.652,-40.125,-36.324,-33.496,-31.516,-37.718,-36.597,-44.242,-40.490,-39.790,-38.847
-45.271,-36.556,-46.989,-40.908,-35.511,-47.025,-42.574,-38.666,-35.839,-33.863,-39.979,-38.831,-47.229,-42.908,-42.206,-41.464
-30.990,-25.030,-32.134,-28.210,-24.556,-32.077,-29.073,-26.252,-24.429,-23.135,-26.981,-26.787,-32.047,-29.147,-28.614,-28.150
-5.447,-4.733,-5.637,-4.110,-4.716,-5.899,-5.248,-4.504,-4.208,-4.293,-4.534,-5.031,-5.462,-4.650,-4.256,-4.520
18.584,15.621,20.184,17.852,14.248,20.049,18.174,16.211,15.700,14.295,17.794,16.255,19.711,18.481,18.977,18.173
30.115,24.941,32.163,27.819,23.089,31.902,29.784,26.003,25.201,23.618,28.173,26.101,31.492,29.826,29.726,29.400
22.395,18.767,23.760,20.768,17.192,23.918,22.372,19.496,18.816,17.487,21.107,19.646,23.263,22.126,22.730,22.064
-1.222,-0.655,-0.895,-1.296,-1.270,-1.231,-0.640,-1.129,-0.962,-0.875,-0.661,-1.197,-1.685,-0.631,-0.131,-0.309
-29.745,-24.354,-31.849,-28.106,-24.001,-31.525,-28.407,-25.542,-24.009,-22.082,-26.901,-26.577,-32.104,-28.567,-27.915,-27.796
-49.581,-41.070,-53.041,-46.523,-39.815,-52.835,-48.027,-42.894,-40.447,-37.665,-45.319,-44.240,-53.235,-48.472,-47.105,-46.840
-53.778,-43.985,-56.310,-49.225,-42.145,-56.430,-51.301,-45.903,-43.427,-40.058,-48.644,-46.555,-56.381,-51.423,-50.486,-50.005
-40.032,-32.725,-42.319,-36.684,-31.842,-42.344,-38.387,-34.350,-32.380,-29.645,-36.045,-34.623,-42.216,-38.477,-37.650,-37.322
-17.783,-14.613,-18.822,-16.154,-14.594,-18.739,-16.875,-15.185,-14.161,-12.990,-15.718,-14.890,-19.099,-17.030,-16.157,-16.306
1.682,1.478,2.307,1.774,0.974,2.275,1.909,2.155,1.923,2.048,2.209,2.150,2.150,2.048,2.836,2.571
10.947,9.012,12.141,10.073,8.243,12.190,10.520,10.053,9.820,8.860,10.376,9.780,11.889,10.960,11.225,11.487
7.936,6.657,8.329,7.592,5.726,8.681,7.934,7.215,6.754,6.241,7.477,6.927,8.447,8.061,8.685,8.139
-3.216,-2.312,-2.787,-1.732,-2.788,-2.385,-1.967,-2.303,-1.856,-1.545,-2.071,-2.249,-2.930,-2.295,-1.434,-1.655
-13.291,-11.239,-14.498,-11.853,-11.148,-13.884,-12.522,-11.313,-10.520,-9.311,-11.955,-11.847,-14.489,-12.743,-11.690,-11.968
-19.448,-16.549,-21.035,-18.018,-16.351,-20.900,-18.927,-16.773,-16.041,-14.962,-18.103,-17.351,-21.305,-18.553,-18.000,-18.014
-20.986,-17.709,-22.747,-19.115,-17.160,-22.273,-20.400,-17.905,-17.045,-15.855,-19.384,-18.187,-22.550,-20.158,-19.498,-19.353
-20.494,-17.215,-21.906,-18.851,-16.382,-22.071,-19.818,-17.464,-16.566,-15.608,-18.910,-18.018,-21.904,-19.791,-19.328,-18.620
-21.883,-17.755,-22.938,-19.787,-17.071,-23.212,-20.610,-18.603,-17.261,-16.455,-19.665,-18.871,-23.301,-20.668,-20.394,-20.109
-24.344,-19.789,-25.454,-22.159,-18.839,-25.907,-22.897,-20.771,-19.554,-18.124,-22.711,-20.971,-25.749,-23.109,-22.679,-22.887
-24.653,-21.007,-26.681,-23.180,-20.086,-27.334,-24.381,-21.719,-20.589,-19.158,-23.438,-21.903,-26.662,-24.093,-23.267,-23.670
-20.167,-17.104,-21.609,-18.449,-15.902,-21.949,-19.960,-17.441,-16.710,-15.419,-18.671,-17.543,-21.717,-19.685,-18.661,-18.685
-7.610,-7.013,-8.267,-7.280,-6.296,-8.698,-7.660,-6.540,-6.321,-5.851,-7.376,-6.420,-8.292,-7.461,-6.353,-6.835
8.973,6.871,9.462,8.070,7.116,9.433,8.459,7.425,7.066,6.860,8.286,8.116,9.148,9.212,9.586,8.542
22.290,17.726,22.771,20.174,17.521,23.267,21.092,19.057,17.710,16.809,20.287,19.359,23.021,21.996,21.808,21.210
23.818,19.039,24.593,21.331,18.407,24.695,22.692,19.956,19.355,18.436,21.667,20.520,24.824,23.555,23.281,22.240
10.535,8.063,10.478,9.513,8.191,10.811,9.925,8.604,8.788,8.156,9.432,8.598,10.732,10.323,10.483,9.451
-12.667,-10.761,-13.379,-11.351,-10.357,-13.694,-12.396,-11.368,-9.872,-9.725,-11.472,-11.406,-13.837,-12.064,-11.756,-12.145
-34.751,-28.900,-36.863,-31.908,-26.950,-36.691,-33.761,-30.321,-28.102,-26.549,-32.276,-30.865,-36.928,-33.520,-32.955,-32.693
-44.281,-36.299,-46.753,-41.022,-34.485,-46.788,-43.032,-38.469,-35.703,-33.685,-40.810,-39.105,-47.472,-42.753,-41.245,-41.797
-35.103,-29.068,-37.121,-32.165,-27.207,-36.616,-33.473,-30.167,-28.176,-26.235,-31.791,-30.853,-37.691,-33.505,-32.679,-32.456
-9.268,-8.602,-10.707,-9.299,-7.587,-10.278,-9.449,-7.916,-7.682,-6.890,-8.966,-9.126,-10.788,-9.823,-9.150,-8.783
50.248,40.507,52.388,45.875,39.112,53.030,48.346,43.531,40.707,38.336,45.663,43.523,52.291,48.708,48.238,47.745
70.703,57.540,74.623,64.991,55.820,74.679,68.362,60.853,57.635,53.747,64.837,61.503,74.236,68.592,68.149,67.617
73.693,59.885,77.498,67.498,57.773,77.590,71.074,63.387,59.936,55.837,67.578,64.205,77.096,71.878,70.873,70.222
28.525,22.531,30.146,26.633,22.741,30.496,27.602,24.911,23.091,21.473,26.334,24.739,29.768,28.164,27.828,27.068
4.733,3.329,4.962,4.143,4.165,5.002,4.522,4.228,4.050,3.654,4.613,4.045,4.776,4.884,5.016,4.727
-16.456,-13.801,-17.306,-15.104,-12.219,-17.118,-15.363,-13.852,-12.775,-12.262,-14.440,-14.080,-17.649,-15.355,-14.929,-15.318
-24.566,-21.028,-25.907,-22.940,-19.463,-26.216,-23.791,-21.340,-19.579,-18.683,-22.152,-21.447,-26.797,-23.535,-22.655,-23.320
-18.688,-15.684,-19.953,-17.365,-14.265,-19.886,-17.728,-15.531,-14.616,-13.631,-17.052,-16.208,-20.242,-17.725,-17.145,-17.055
-3.251,-2.877,-3.154,-2.951,-1.973,-2.990,-2.833,-2.529,-2.735,-2.198,-2.880,-3.231,-3.930,-2.918,-2.148,-2.996
12.416,10.301,13.723,11.809,10.436,13.736,12.818,10.958,10.587,10.325,11.912,11.097,12.994,12.610,13.210,12.353
22.364,18.503,24.681,20.808,17.965,24.437,22.675,19.672,18.550,17.726,21.459,19.713,23.877,22.425,23.098,21.971
25.119,20.362,26.734,22.963,19.687,26.855,25.057,21.361,20.600,19.688,23.906,22.027,26.315,24.768,25.475,24.554
23.193,18.599,24.302,21.261,18.676,24.958,22.654,20.006,19.026,18.191,21.762,19.947,24.151,22.451,23.337,22.581
20.636,16.880,22.129,19.447,16.603,22.421,20.245,17.588,17.052,16.265,19.113,17.684,21.443,20.144,20.858,20.104
20.113,16.258,21.631,18.904,16.160,22.504,19.898,17.200,16.752,15.985,19.184,17.794,21.598,20.042,20.543,20.129
21.146,16.953,22.108,19.010,16.627,22.550,20.605,17.433,17.316,15.860,19.504,17.948,21.749,20.576,20.984,19.970
18.174,14.273,19.281,16.338,14.502,19.102,18.005,14.543,14.767,14.596,16.733,15.947,19.158,18.096,17.868,17.000
9.874,7.710,10.807,8.800,8.035,10.680,9.804,7.389,8.057,7.836,9.009,9.157,10.462,10.094,10.109,9.693
-0.967,-2.092,-1.771,-1.571,-0.940,-1.482,-0.940,-2.078,-0.815,-0.491,-1.697,-1.356,-1.889,-0.894,-0.982,-1.373
-10.055,-9.523,-11.247,-9.762,-7.582,-10.947,-9.568,-9.389,-8.414,-7.075,-9.682,-9.378,-11.061,-9.820,-9.312,-10.175
-9.493,-8.723,-10.943,-8.923,-7.369,-9.934,-9.126,-8.489,-7.807,-6.763,-9.418,-8.629,-9.908,-9.183,-8.759,-9.521
3.752,2.499,3.125,2.918,2.651,4.112,3.666,3.052,3.216,3.274,2.928,2.897,3.674,3.367,3.705,3.229
25.515,19.930,26.225,23.213,19.788,26.953,24.928,21.625,20.853,19.302,22.755,22.122,26.802,24.559,24.931,23.863
46.060,36.541,47.955,42.239,36.030,49.150,44.482,39.508,37.265,35.118,41.820,40.160,48.629,44.980,44.812,43.521
54.295,43.352,56.766,49.898,42.552,57.880,52.284,46.807,44.222,41.991,49.259,47.592,56.833,53.210,53.025,51.622
44.669,36.044,46.914,41.659,35.194,48.306,43.377,38.548,36.700,34.731,41.236,39.523,46.764,43.977,43.524,42.796
20.433,16.380,21.390,19.054,16.313,22.146,19.645,17.720,16.748,16.470,19.057,18.262,21.448,19.972,20.026,19.152
-7.657,-6.772,-8.620,-7.077,-6.122,-7.991,-8.039,-6.432,-6.607,-5.495,-7.034,-6.907,-8.750,-7.600,-7.453,-7.771
-27.422,-23.353,-29.200,-25.038,-21.347,-28.553,-26.584,-23.464,-22.709,-20.338,-25.416,-23.861,-28.791,-26.222,-25.547,-26.332
-28.722,-23.992,-30.531,-25.534,-22.054,-29.991,-27.748,-24.461,-23.290,-21.570,-26.132,-24.929,-29.916,-27.393,-26.978,-27.295
-12.224,-10.287,-12.758,-10.253,-9.218,-12.315,-11.569,-10.249,-9.478,-9.083,-11.036,-10.165,-12.315,-10.843,-10.361,-10.981
14.140,11.157,14.732,13.256,11.368,15.184,13.770,12.502,11.985,11.461,13.009,12.571,15.156,14.631,14.307,13.781
36.837,29.570,38.548,34.058,28.903,39.046,35.210,31.789,30.334,28.229,34.258,32.388,38.669,36.324,35.895,35.440
45.144,37.036,47.906,41.799,35.837,48.598,43.667,39.492,37.073,34.665,42.034,39.953,47.919,45.060,44.252,43.213
37.253,30.420,39.427,34.932,29.974,40.035,36.379,32.395,31.240,28.434,34.382,33.168,39.333,37.537,36.744,35.459
18.620,15.201,19.679,17.878,15.231,20.524,18.658,16.080,15.670,14.524,17.717,17.109,19.890,19.505,18.605,18.044
-1.352,-0.743,-1.057,-0.194,-0.093,-0.369,-0.362,-1.079,-0.565,-0.810,-0.698,-0.432,-1.027,0.211,-0.032,-0.618
-13.654,-11.263,-13.915,-11.922,-10.562,-13.541,-12.530,-11.221,-10.684,-9.955,-12.182,-11.755,-14.117,-12.378,-11.749,-12.475
-15.456,-13.463,-16.572,-14.724,-11.949,-16.482,-14.921,-13.462,-12.653,-11.477,-14.686,-13.948,-16.949,-14.559,-13.821,-15.084
-10.545,-9.368,-11.613,-9.965,-8.751,-11.133,-10.497,-9.818,-8.772,-7.559,-9.592,-9.529,-12.428,-10.078,-9.146,-10.884
-4.414,-4.229,-4.753,-4.507,-3.998,-4.683,-4.242,-4.332,-3.526,-2.769,-4.426,-3.952,-5.400,-3.480,-3.392,-4.538
-0.455,-0.983,-0.580,-0.548,-1.011,-0.770,-0.382,-1.052,0.279,-0.358,-0.375,-0.340,-1.324,-0.032,-0.017,-1.025
-0.052,-0.365,0.001,0.534,-0.086,0.295,0.310,-0.102,0.592,-0.081,0.063,0.576,-0.299,0.627,1.083,-0.179
0.813,0.257,0.842,0.771,0.673,0.931,0.785,0.832,0.524,0.688,0.532,1.088,0.825,1.527,1.684,0.362
4.903,3.254,4.575,4.191,3.600,5.050,4.411,3.650,3.770,3.505,4.273,3.831,4.566,5.031,4.965,3.592
10.999,8.356,11.405,10.378,8.541,12.280,10.520,9.359,9.269,8.315,10.208,9.478,11.135,11.128,10.822,9.243
15.234,11.995,16.307,14.925,12.374,17.172,15.141,13.639,13.229,11.778,14.757,13.611,16.435,16.022,15.692,14.176
12.961,10.396,13.968,12.439,10.281,14.171,12.975,11.813,11.415,9.820,12.183,11.592,13.624,13.327,13.539,11.798
0.497,0.153,1.181,1.106,0.536,0.963,0.664,1.122,1.335,0.276,0.766,0.663,0.708,0.691,1.484,0.350
-19.125,-16.019,-19.838,-16.838,-14.568,-19.564,-18.997,-15.699,-15.242,-14.696,-17.366,-16.788,-20.368,-18.510,-17.681,-18.102
-37.601,-31.095,-39.627,-33.857,-28.996,-39.343,-36.701,-31.646,-30.189,-28.834,-34.885,-33.011,-40.089,-36.349,-35.783,-35.790
-45.608,-37.568,-48.228,-41.427,-34.784,-48.016,-44.141,-39.143,-36.683,-34.408,-42.150,-39.631,-47.944,-43.928,-42.818,-43.286
-36.965,-30.744,-38.678,-33.229,-28.438,-38.558,-35.590,-31.433,-29.633,-27.786,-34.278,-31.947,-39.077,-35.506,-34.781,-35.245
-14.430,-12.181,-15.564,-12.939,-11.089,-14.946,-13.901,-12.427,-11.558,-10.656,-13.946,-12.422,-15.147,-13.549,-13.152,-14.193
12.103,8.919,12.634,11.215,9.411,12.180,11.102,9.966,9.638,9.243,10.290,10.063,12.404,12.177,11.845,10.335
28.898,22.986,30.173,26.885,22.343,29.946,27.394,24.910,23.308,22.223,25.475,24.624,29.998,28.660,27.969,26.451
27.631,21.970,28.695,25.428,21.417,28.339,26.195,23.580,22.346,20.846,24.208,24.081,28.334,27.326,26.655,25.347
8.026,6.210,8.645,7.824,6.261,8.357,7.404,6.906,6.369,6.298,6.766,6.840,7.951,8.254,8.129,7.138
-20.835,-17.160,-21.361,-18.437,-16.465,-22.156,-20.190,-17.574,-16.728,-15.365,-19.166,-18.055,-22.227,-19.710,-19.272,-19.792
-45.081,-36.955,-47.432,-41.127,-35.281,-47.320,-43.280,-38.483,-36.361,-34.236,-41.869,-39.210,-47.542,-43.097,-42.394,-42.947
-54.354,-44.782,-57.393,-49.885,-42.186,-57.227,-52.694,-47.000,-44.187,-41.075,-50.710,-47.530,-57.208,-52.180,-51.430,-51.625
-45.984,-37.851,-48.358,-41.345,-35.472,-48.535,-44.416,-39.906,-37.236,-34.895,-42.875,-40.142,-48.338,-44.251,-43.335,-43.496
-25.344,-20.985,-26.746,-22.241,-19.701,-26.869,-24.529,-21.642,-20.873,-19.440,-24.246,-22.017,-26.649,-24.329,-23.836,-23.761
-3.725,-2.893,-3.527,-1.908,-2.700,-3.865,-3.447,-2.573,-3.296,-2.796,-4.225,-3.104,-3.560,-3.318,-2.961,-3.545
9.758,7.216,9.971,9.242,7.779,9.991,9.422,9.047,7.134,7.547,8.335,8.422,10.410,9.696,9.362,9.015
10.655,8.194,10.756,9.651,8.546,10.864,10.342,9.700,8.244,8.548,8.753,9.053,10.711,10.690,9.976,9.428
2.055,0.595,1.424,1.824,1.280,1.811,1.560,1.800,1.076,1.344,0.994,1.129,1.624,2.224,1.219,1.124
-10.165,-9.136,-11.080,-8.808,-7.495,-10.231,-9.578,-8.228,-8.343,-7.177,-9.863,-9.507,-10.555,-9.137,-9.484,-9.796
-17.534,-15.848,-19.152,-15.799,-13.613,-18.917,-17.468,-15.618,-15.194,-13.507,-17.061,-16.201,-19.492,-17.141,-17.341,-17.115
-20.796,-17.886,-22.114,-18.800,-16.090,-22.131,-20.337,-18.100,-17.324,-16.269,-19.657,-18.934,-22.210,-19.684,-19.791,-19.589
-20.344,-17.508,-21.765,-18.524,-15.658,-21.727,-19.868,-17.781,-17.156,-16.035,-19.188,-18.323,-22.262,-19.987,-20.106,-19.747
-21.189,-17.850,-22.151,-18.664,-16.043,-22.311,-20.063,-18.527,-17.221,-16.116,-19.552,-18.501,-22.347,-20.482,-19.892,-19.639
-23.239,-19.768,-24.512,-21.286,-17.975,-24.682,-22.632,-20.580,-19.170,-18.005,-21.549,-20.428,-24.762,-22.222,-22.069,-21.762
-25.025,-21.612,-26.701,-23.296,-19.913,-27.033,-24.591,-22.174,-21.028,-19.379,-23.163,-22.115,-26.833,-24.387,-24.129,-23.718
-22.421,-19.733,-24.125,-20.651,-17.860,-23.907,-22.108,-20.030,-18.641,-17.010,-20.556,-20.126,-23.944,-21.858,-21.754,-21.783
-12.560,-10.828,-13.296,-11.856,-9.807,-13.023,-12.585,-11.808,-10.389,-9.224,-11.761,-11.414,-13.352,-12.385,-11.861,-12.652
3.760,1.967,3.766,3.233,2.246,3.785,3.195,2.412,2.686,3.382,2.988,2.493,3.371,3.700,3.556,3.169
19.029,14.399,19.614,17.413,13.857,20.107,18.339,16.149,14.737,14.673,17.025,16.170,19.943,19.029,18.496,17.380
24.877,19.420,26.067,22.805,18.485,26.447,23.996,21.537,19.128,18.684,22.445,20.980,25.935,24.358,23.987,22.899
16.597,12.375,17.125,14.722,12.401,17.130,15.755,13.524,12.821,12.339,14.522,13.609,16.667,15.801,15.794,15.110
-4.207,-4.813,-4.648,-4.258,-4.001,-4.597,-4.663,-4.739,-3.979,-3.543,-4.343,-4.586,-5.211,-4.137,-3.880,-4.752
-28.309,-24.050,-30.315,-26.178,-22.370,-29.913,-27.846,-25.048,-23.900,-21.501,-26.367,-25.602,-30.482,-27.668,-26.387,-27.019
-42.835,-36.117,-45.522,-39.676,-34.067,-45.612,-42.064,-37.360,-35.525,-32.880,-39.808,-38.435,-45.910,-41.867,-40.663,-41.476
-40.161,-33.583,-42.152,-36.996,-31.545,-42.514,-39.032,-35.200,-32.978,-30.464,-36.933,-35.621,-42.561,-39.043,-37.967,-38.214
-19.416,-16.071,-20.665,-17.763,-15.210,-20.475,-19.039,-17.385,-15.802,-14.842,-18.168,-17.714,-20.600,-18.816,-18.883,-18.402
40.593,32.791,42.507,37.316,31.308,43.222,39.213,34.525,32.783,30.300,36.336,34.941,42.676,39.233,38.226,38.450
65.601,53.015,69.213,60.263,50.819,69.924,63.022,56.141,52.817,49.709,58.830,56.581,69.136,63.929,62.245,62.014
74.957,61.473,78.550,68.684,58.642,79.957,72.171,64.463,61.080,56.485,67.698,65.112,79.008,72.898,71.477,71.129
65.513,53.679,68.781,60.140,51.279,69.856,63.499,56.420,53.003,49.612,59.500,57.013,69.555,63.671,62.463,62.182
13.077,10.698,13.432,11.756,10.367,14.131,12.891,11.179,10.618,10.268,11.429,10.965,13.966,12.984,12.473,12.084
-10.151,-8.532,-10.833,-9.603,-8.141,-10.242,-9.206,-8.509,-8.685,-6.739,-9.599,-9.175,-10.760,-9.523,-9.676,-9.787
-23.236,-19.230,-24.807,-21.533,-18.273,-24.551,-22.086,-20.266,-19.305,-17.209,-21.397,-20.444,-25.098,-22.805,-22.507,-22.151
-21.782,-18.810,-23.027,-20.666,-17.103,-23.226,-21.083,-18.989,-18.125,-16.518,-20.546,-19.260,-23.564,-21.437,-20.639,-20.790
-8.425,-8.270,-9.346,-8.409,-7.192,-9.219,-8.048,-7.645,-7.727,-6.593,-8.432,-8.099,-9.637,-8.494,-7.934,-8.519
8.382,5.969,8.174,7.300,6.329,8.478,8.057,6.643,6.301,5.604,6.802,6.571,8.162,7.819,8.080,7.351
20.857,16.123,21.661,19.062,16.466,22.679,20.267,17.686,16.587,15.083,18.223,17.751,21.705,19.865,19.973,19.443
25.467,20.502,26.398,23.601,20.332,27.721,24.609,21.918,20.694,19.441,22.876,22.444,26.870,24.448,24.563,24.127
24.325,19.618,25.344,22.583,19.154,26.311,23.682,21.164,19.897,18.399,22.220,21.258,25.450,23.771,23.622,23.687
21.709,17.084,22.307,20.165,16.891,23.050,20.546,18.941,17.593,16.329,19.903,19.296,22.840,21.326,20.942,21.022
20.489,16.112,21.681,18.680,15.610,21.609,19.839,18.211,16.564,15.499,19.197,18.106,22.221,20.024,20.418,19.503
21.354,16.357,22.248,19.452,16.044,22.185,20.136,18.362,16.920,15.721,19.620,18.642,22.540,20.287,21.040,20.183
19.759,15.091,20.944,18.718,14.953,20.710,18.964,17.193,15.612,14.943,17.875,17.675,21.100,19.086,19.533,18.811
13.596,9.894,14.457,13.040,10.491,13.587,12.768,11.780,10.921,10.393,12.164,11.722,14.299,12.652,13.321,12.565
2.423,0.983,3.036,3.188,1.639,2.091,2.526,1.905,1.959,1.543,2.564,2.417,2.706,2.261,2.845,2.281
-8.479,-7.332,-8.473,-6.549,-6.581,-9.120,-7.740,-6.938,-6.421,-6.227,-7.493,-7.166,-8.293,-7.919,-7.036,-7.996
-11.385,-9.707,-11.440,-9.330,-8.945,-12.317,-10.813,-9.608,-8.851,-8.516,-10.158,-10.121,-11.812,-10.505,-10.090,-11.250
-2.594,-2.307,-1.706,-1.269,-2.246,-2.820,-1.996,-1.761,-1.648,-1.459,-1.558,-2.177,-2.333,-1.982,-1.758,-2.331
17.472,13.671,19.091,16.629,13.153,18.229,17.443,15.251,14.121,12.993,16.275,15.321,18.201,17.294,17.078,16.258
39.642,32.040,42.521,37.048,31.020,41.533,38.785,34.370,32.094,29.704,36.465,34.556,41.995,38.714,38.524,37.380
53.340,42.666,56.916,49.396,41.620,55.966,51.788,46.246,43.383,40.319,48.946,46.522,56.552,51.928,51.581,50.836
50.132,40.054,53.176,46.584,39.206,52.477,48.584,43.283,40.464,38.045,45.946,43.677,52.713,49.005,48.636,47.318
30.117,23.758,31.952,27.864,23.262,31.047,29.014,25.638,23.955,22.511,27.497,25.940,31.584,29.270,29.508,28.243
1.384,0.045,1.879,1.810,1.110,0.690,1.278,1.282,0.752,0.812,1.610,0.885,1.691,1.725,1.521,1.672
-22.470,-19.444,-23.589,-20.180,-17.715,-24.262,-21.697,-19.102,-18.384,-17.112,-20.569,-20.041,-23.777,-21.640,-21.320,-20.864
-30.575,-25.120,-31.214,-27.211,-23.963,-31.840,-29.267,-26.005,-25.139,-23.460,-27.583,-26.536,-32.205,-29.592,-28.801,-28.110
-18.795,-15.866,-19.417,-16.801,-14.600,-19.712,-18.194,-16.218,-15.734,-14.201,-17.557,-16.613,-19.842,-18.434,-17.483,-17.109
5.266,4.021,6.443,5.659,4.379,6.073,5.463,4.898,4.222,4.624,5.345,4.724,5.286,5.559,5.666,6.032
30.618,24.342,32.849,28.562,24.188,32.295,29.476,26.297,24.208,23.661,28.288,26.267,31.947,29.406,29.963,29.902
44.876,35.965,47.528,41.590,35.364,47.032,43.195,38.380,35.443,34.552,41.164,38.878,47.400,43.464,42.926,43.448
42.013,33.535,44.561,39.105,33.389,44.240,40.717,36.592,33.850,32.312,38.399,36.666,44.446,40.615,40.475,40.850
25.994,20.638,27.643,24.548,20.669,27.365,25.261,22.690,20.929,19.869,23.713,22.661,27.366,24.821,25.231,25.728
5.251,3.891,5.938,5.614,4.360,5.744,5.485,4.888,4.404,4.131,4.920,4.709,5.222,5.106,5.422,6.239
-10.573,-9.146,-10.244,-8.478,-7.767,-10.401,-9.370,-8.678,-8.364,-7.600,-9.318,-9.148,-11.335,-9.707,-9.158,-8.650
-15.926,-14.108,-16.008,-13.854,-12.295,-17.037,-15.134,-13.650,-13.125,-12.157,-14.518,-13.839,-17.247,-15.200,-14.912,-14.275
-12.837,-11.728,-12.919,-11.376,-9.986,-13.531,-12.025,-11.065,-10.323,-9.612,-12.087,-11.353,-13.949,-12.155,-12.073,-11.386
-6.292,-6.083,-6.359,-5.697,-5.061,-6.527,-6.062,-5.487,-5.570,-4.618,-5.792,-5.414,-7.088,-5.699,-5.563,-5.627
-1.380,-1.782,-1.625,-0.553,-1.203,-1.321,-1.216,-1.329,-1.407,-1.145,-1.504,-1.437,-2.204,-1.049,-0.974,-1.048
0.161,-0.286,0.034,0.408,0.054,-0.166,0.195,0.088,-0.205,0.110,-0.168,0.147,-0.233,0.509,0.819,-0.233
0.548,-0.155,0.360,1.159,0.262,0.448,0.326,-0.111,-0.154,0.507,-0.008,0.536,0.227,0.618,1.018,0.298
3.316,2.129,3.557,2.830,2.691,2.955,3.118,2.320,2.554,2.392,2.237,2.419,2.643,3.298,3.748,2.284
8.829,6.709,9.856,8.596,6.919,9.128,8.465,7.737,7.193,6.723,7.281,7.409,8.663,8.750,9.001,7.936
14.965,11.745,15.898,13.581,11.572,15.653,14.420,12.733,11.810,11.296,12.737,12.683,15.154,14.613,14.910,14.090
15.620,12.465,16.697,14.364,12.087,15.825,14.680,13.607,12.327,12.011,13.596,13.448,15.608,14.985,14.956,14.279
6.570,4.715,6.866,5.994,5.192,6.331,5.526,5.403,4.951,5.417,5.183,5.450,5.709,5.796,5.961,5.626
-11.550,-10.048,-12.697,-10.696,-9.358,-13.058,-11.616,-10.622,-10.048,-8.733,-11.429,-10.296,-13.556,-11.806,-11.282,-11.250
-32.286,-26.595,-34.249,-29.583,-25.382,-34.222,-30.939,-28.021,-26.587,-23.964,-30.058,-28.440,-34.697,-31.450,-30.330,-30.672
-44.620,-37.165,-47.139,-40.819,-34.723,-47.205,-43.289,-38.435,-36.299,-34.018,-41.519,-39.101,-47.393,-43.434,-42.662,-42.205
-41.474,-34.856,-44.024,-37.984,-32.399,-43.927,-40.420,-35.583,-34.031,-31.448,-38.284,-36.360,-43.970,-40.505,-39.225,-39.539
-22.780,-19.527,-24.176,-20.894,-17.396,-23.983,-22.106,-19.242,-19.226,-17.257,-21.537,-20.449,-24.234,-21.847,-21.135,-21.719
3.613,2.276,3.577,3.154,2.920,4.263,3.357,3.376,2.462,2.474,2.821,2.432,3.658,3.911,3.485,3.623
24.758,19.722,25.684,23.027,19.492,26.391,23.828,21.794,19.922,18.636,21.977,21.403,25.772,24.284,23.973,23.677
29.835,23.989,31.430,27.846,23.634,31.998,28.871,26.107,24.336,22.385,27.244,25.967,31.307,29.108,28.736,28.847
16.222,12.454,16.823,14.922,12.702,16.869,15.312,13.867,12.876,12.477,14.172,13.530,16.813,15.513,15.396,15.485
-11.239,-9.572,-11.277,-10.217,-8.527,-11.145,-10.644,-9.107,-9.338,-7.984,-10.839,-9.324,-11.211,-10.454,-9.940,-9.987
-37.989,-32.068,-40.210,-35.307,-30.073,-40.069,-36.604,-33.031,-31.163,-28.573,-35.152,-33.061,-39.956,-36.832,-35.821,-35.811
-53.038,-43.881,-56.074,-49.164,-41.929,-55.819,-51.483,-46.054,-43.401,-40.269,-48.909,-46.650,-55.880,-51.726,-50.568,-50.904
-50.238,-41.624,-52.920,-46.649,-39.735,-53.094,-48.864,-43.096,-41.232,-38.502,-46.497,-44.030,-53.142,-49.100,-47.766,-48.049
-32.517,-26.845,-34.017,-30.877,-25.944,-34.312,-31.493,-28.323,-26.851,-25.122,-29.890,-28.866,-34.337,-32.027,-31.098,-31.111
-9.854,-8.465,-10.635,-9.838,-7.981,-10.353,-9.729,-8.591,-8.894,-7.894,-9.126,-9.553,-10.870,-9.918,-9.306,-9.495
6.612,5.553,6.900,5.621,4.872,6.983,6.143,5.244,4.795,4.927,6.048,5.410,7.271,6.336,6.896,6.735
11.714,9.419,12.020,10.025,8.518,11.897,10.897,9.813,9.087,8.036,10.830,9.252,12.487,11.275,11.202,11.338
4.760,4.605,5.307,4.036,3.826,5.415,5.358,4.724,4.248,3.601,4.802,3.479,5.845,5.208,5.513,5.503
-6.919,-5.005,-6.707,-6.290,-5.333,-6.495,-5.894,-5.222,-5.080,-4.645,-5.523,-6.362,-6.420,-5.712,-5.667,-5.795
-16.210,-12.721,-16.840,-15.481,-12.477,-17.440,-15.628,-13.529,-13.590,-12.198,-14.272,-14.745,-16.897,-15.640,-14.671,-14.947
-20.747,-16.909,-21.820,-18.806,-16.645,-22.103,-20.157,-17.251,-16.577,-15.814,-18.670,-18.611,-21.767,-19.775,-19.577,-19.012
-20.547,-16.963,-22.009,-19.511,-16.819,-22.333,-19.876,-17.628,-16.830,-15.797,-19.084,-18.813,-22.347,-20.190,-19.884,-19.731
-20.691,-16.624,-21.642,-19.276,-16.646,-22.051,-19.708,-17.650,-16.785,-15.935,-18.704,-18.610,-21.901,-19.580,-19.653,-19.428
-22.666,-18.037,-23.385,-21.143,-18.020,-23.895,-21.189,-19.107,-18.480,-16.556,-20.251,-20.113,-24.365,-21.218,-21.201,-20.791
-25.257,-20.179,-25.811,-23.438,-19.838,-26.250,-23.692,-21.193,-20.546,-18.719,-22.950,-22.430,-26.733,-23.463,-23.803,-23.098
-24.904,-20.000,-25.093,-22.694,-19.239,-26.024,-23.178,-20.907,-20.205,-18.263,-22.791,-21.906,-26.079,-23.260,-23.438,-22.851
-17.186,-13.815,-17.078,-16.051,-13.108,-17.729,-15.932,-14.435,-14.740,-12.167,-15.930,-15.424,-18.070,-16.036,-15.842,-15.616
-2.428,-1.722,-1.738,-2.016,-2.097,-2.196,-1.920,-1.200,-2.643,-0.822,-2.231,-2.291,-2.807,-1.827,-1.939,-1.730
14.073,12.129,15.569,12.856,11.220,15.208,14.322,12.713,10.713,11.768,12.869,11.814,14.420,13.895,13.943,13.953
24.074,19.919,26.381,22.171,18.994,25.803,23.617,20.934,18.849,18.797,21.790,20.769,24.921,23.252,23.399,23.060
20.780,17.044,22.788,18.297,16.294,22.285,20.090,18.306,16.114,16.144,18.955,17.977,21.669,20.185,20.217,19.823
3.203,2.694,4.150,2.916,2.877,3.888,3.199,2.961,2.274,3.081,3.270,2.391,2.989,2.903,3.450,3.840
-20.936,-17.331,-21.488,-19.604,-16.384,-21.676,-20.439,-17.677,-17.567,-15.938,-18.983,-18.836,-22.403,-20.361,-19.732,-19.809
-40.162,-33.019,-41.572,-36.757,-31.074,-41.769,-38.646,-34.362,-32.553,-30.044,-36.968,-35.356,-42.240,-38.694,-37.610,-37.661
-43.448,-35.468,-45.504,-39.871,-33.715,-45.364,-41.831,-37.329,-35.730,-32.773,-40.219,-38.211,-46.139,-41.856,-41.286,-40.914
-27.855,-22.822,-28.905,-25.819,-21.373,-29.563,-27.320,-24.183,-22.994,-21.037,-26.069,-24.523,-29.837,-26.958,-26.302,-26.271
30.354,25.067,32.296,27.958,24.118,32.719,29.261,26.650,24.645,22.446,27.413,26.524,31.904,29.729,29.604,28.979
58.158,48.207,61.705,54.123,45.684,62.458,56.298,51.007,47.532,43.521,52.944,50.974,61.338,56.917,56.656,56.062
73.833,60.697,77.916,68.442,57.495,78.953,71.195,63.618,59.224,56.284,67.082,64.312,77.342,72.138,70.915,70.433
70.334,57.575,74.164,64.834,55.022,75.309,67.847,60.764,56.440,53.420,63.643,61.517,73.771,68.598,67.568,66.942
20.906,17.435,22.088,19.182,16.366,22.585,20.202,18.197,16.605,16.241,18.872,18.049,22.057,20.683,20.317,20.476
-3.200,-2.224,-3.345,-2.890,-2.596,-3.062,-2.959,-2.882,-2.691,-2.238,-3.325,-3.043,-3.362,-2.619,-3.092,-2.863
-20.247,-17.192,-21.624,-18.511,-16.367,-21.599,-19.854,-18.116,-16.944,-15.511,-19.001,-18.380,-21.402,-19.821,-20.111,-19.609
-23.339,-19.924,-25.282,-22.036,-18.994,-25.256,-23.206,-20.884,-19.697,-17.895,-21.944,-21.684,-25.199,-22.934,-22.905,-23.162
-13.322,-11.875,-14.910,-12.913,-11.023,-14.827,-13.624,-12.206,-11.827,-10.825,-13.071,-12.933,-14.378,-13.398,-13.371,-13.771
2.916,1.613,2.638,2.094,1.518,2.757,2.355,2.176,1.606,1.561,2.067,1.625,2.998,2.506,2.298,1.869
17.659,13.844,17.594,15.205,13.223,18.714,16.332,14.855,13.473,12.524,15.400,14.875,18.669,16.858,16.509,16.078
24.690,19.617,26.027,21.881,19.261,26.457,23.675,21.206,19.659,18.505,22.339,21.096,26.456,23.934,23.543,22.991
25.291,19.966,26.847,22.431,20.006,27.078,23.916,21.973,20.362,19.048,23.061,21.378,27.040,24.352,23.703,23.656
22.802,17.725,24.288,19.998,17.630,24.521,21.551,19.870,17.847,17.168,20.596,19.364,24.453,22.091,21.305,21.415
21.394,16.159,22.335,18.746,16.537,23.209,19.925,18.239,16.641,15.976,19.057,17.967,22.048,20.442,19.861,19.774
21.224,16.749,23.102,18.951,16.143,22.933,19.989,18.319,16.911,16.474,19.135,18.116,22.873,20.724,19.930,20.230
20.745,16.562,22.436,18.520,15.767,22.542,19.593,18.009,17.145,16.182,19.021,17.635,22.583,20.098,19.220,20.324
15.910,12.808,17.308,15.230,12.313,17.984,15.263,13.663,13.531,12.653,14.712,13.606,17.596,15.900,15.323,16.212
6.262,4.684,6.781,5.861,4.677,7.599,6.017,5.789,5.753,5.051,6.112,5.510,7.293,6.656,6.151,6.579
-5.142,-4.920,-5.441,-4.502,-4.303,-4.407,-5.289,-4.355,-3.730,-3.801,-4.824,-4.389,-4.704,-4.419,-5.165,-4.753
-11.926,-9.809,-11.801,-10.750,-9.292,-11.393,-10.749,-9.778,-9.066,-8.652,-10.981,-10.342,-11.498,-10.805,-10.960,-10.282
-6.675,-5.905,-6.915,-6.137,-5.617,-6.518,-6.285,-5.638,-5.271,-5.119,-6.305,-6.014,-5.964,-6.133,-6.145,-5.881
10.651,8.043,11.094,9.079,7.520,10.920,9.764,8.850,8.271,7.649,9.506,8.759,11.359,10.324,9.720,9.900
33.161,26.776,34.876,30.244,25.388,35.259,31.529,28.129,27.062,24.824,29.551,28.765,34.725,32.190,31.114,31.287
50.890,40.871,53.265,47.022,39.354,53.932,48.531,43.246,41.395,38.572,45.191,44.152,53.479,48.959,48.211,47.883
54.389,43.227,56.271,49.352,41.741,56.856,51.280,45.619,43.399,40.434,47.760,46.369,56.238,51.604,50.791,50.738
38.574,30.879,40.316,35.047,29.762,40.793,36.620,32.587,30.938,29.029,34.180,33.274,40.202,37.446,36.211,36.558
12.146,8.428,11.547,9.701,8.153,12.017,9.964,9.140,8.988,7.876,9.374,9.705,11.553,11.014,10.117,10.425
-15.018,-13.754,-16.665,-15.034,-12.845,-16.290,-15.766,-13.758,-12.750,-12.621,-15.168,-14.105,-17.052,-15.459,-15.629,-14.924
-29.193,-24.656,-31.384,-27.946,-23.459,-31.040,-29.434,-25.570,-24.302,-22.564,-27.975,-26.514,-31.901,-28.944,-28.543,-28.453
-23.709,-20.214,-25.583,-23.249,-19.425,-25.357,-24.545,-20.946,-19.970,-18.581,-22.837,-22.202,-26.123,-24.210,-23.341,-22.872
-2.796,-2.697,-3.381,-3.601,-3.083,-2.897,-3.990,-2.458,-2.758,-2.764,-3.400,-3.663,-3.334,-3.364,-3.006,-3.077
23.200,18.926,24.403,21.001,17.588,25.044,21.899,20.582,18.072,17.397,20.567,19.154,24.394,22.351,21.922,21.769
42.181,33.515,44.640,38.616,32.303,44.739,39.639,36.393,33.794,31.173,38.255,35.977,43.916,40.792,39.726,40.101
45.469,36.207,47.969,40.873,34.571,47.638,42.848,38.877,35.858,33.193,40.979,38.408,46.956,43.560,42.702,43.180
32.713,26.365,34.678,29.721,24.539,34.586,30.867,28.517,26.014,23.769,29.756,27.708,33.983,31.715,30.628,31.558
12.622,9.726,13.436,11.368,9.253,13.331,11.296,10.776,9.501,8.953,11.067,10.402,13.031,11.956,11.637,12.362
-5.645,-5.327,-5.587,-5.036,-4.629,-6.123,-6.206,-4.763,-5.243,-5.261,-5.573,-5.359,-5.843,-5.517,-5.528,-5.119
-15.158,-13.048,-15.141,-13.868,-12.075,-15.655,-15.109,-12.792,-12.620,-11.707,-13.804,-13.926,-15.617,-14.651,-14.654,-13.760
-14.915,-12.491,-14.926,-13.454,-11.706,-14.949,-14.197,-12.460,-12.450,-10.871,-13.539,-13.472,-15.057,-13.869,-13.999,-12.830
-8.757,-7.225,-8.614,-8.064,-7.032,-8.479,-8.408,-7.552,-7.485,-6.690,-7.899,-8.041,-8.958,-8.468,-8.296,-7.582
-2.838,-2.689,-2.604,-2.699,-2.469,-2.596,-2.869,-2.533,-2.733,-2.038,-2.817,-2.469,-2.486,-3.177,-2.665,-2.142
-0.103,-0.934,0.183,-0.412,-0.514,0.284,-0.408,-0.097,-0.483,0.228,-0.601,-0.172,-0.011,-0.541,-0.453,0.230
0.295,-0.446,0.848,0.502,-0.254,1.052,-0.477,-0.024,-0.211,1.079,-0.030,0.190,0.080,0.220,-0.096,0.325
1.658,1.120,2.747,1.390,1.113,2.446,1.413,1.367,1.124,1.320,1.164,1.081,1.977,1.409,1.432,2.246
6.579,4.603,7.256,5.998,4.595,7.356,6.193,5.891,5.405,5.250,5.419,5.026,7.339,6.012,6.496,6.834
13.413,9.978,13.972,11.888,9.850,13.808,12.373,10.987,10.551,9.806,12.035,11.127,13.417,12.785,12.544,12.721
16.426,12.969,17.389,14.552,11.791,17.400,15.529,13.679,13.291,12.153,15.009,13.615,16.623,15.638,15.215,15.603
10.399,8.069,10.965,9.485,7.114,11.141,9.941,8.427,8.588,7.789,9.658,8.492,10.737,9.671,9.655,10.259
-5.411,-4.421,-5.645,-4.747,-4.435,-5.183,-4.912,-4.961,-4.461,-3.559,-4.940,-5.079,-5.650,-5.558,-5.012,-4.566
-25.516,-21.163,-26.779,-23.626,-20.672,-26.981,-25.102,-22.234,-21.209,-19.187,-24.018,-23.179,-27.287,-24.726,-24.866,-24.091
-42.008,-34.463,-43.848,-38.587,-33.367,-44.220,-40.612,-36.307,-34.276,-31.282,-38.716,-36.996,-44.055,-40.524,-40.059,-39.506
-44.341,-37.178,-46.094,-40.877,-35.207,-47.022,-42.834,-38.512,-36.221,-33.138,-40.856,-39.128,-46.724,-43.317,-42.516,-41.561
-30.350,-25.981,-31.398,-27.767,-24.781,-32.222,-29.253,-26.599,-25.091,-22.670,-28.149,-27.104,-32.131,-29.736,-28.937,-28.342
-5.084,-4.878,-5.234,-4.338,-4.926,-5.715,-5.267,-4.366,-4.663,-3.760,-5.307,-5.399,-5.818,-5.192,-5.178,-4.416
19.625,15.417,20.710,17.689,14.282,19.922,18.362,16.368,15.243,14.363,17.165,16.225,20.330,18.285,18.510,18.414
30.803,24.655,32.599,28.095,22.805,32.041,29.636,26.280,24.398,22.780,27.504,26.272,32.435,29.559,28.974,29.156
22.722,17.740,23.917,20.795,17.253,24.110,21.977,19.675,18.318,16.324,20.424,19.545,23.826,22.052,21.694,22.166
-0.620,-1.449,-1.189,-1.012,-1.271,-0.498,-1.073,-0.576,-1.556,-1.499,-1.404,-1.601,-1.320,-0.797,-1.402,-0.988
-29.170,-25.099,-30.866,-27.447,-23.639,-31.384,-28.647,-25.783,-24.928,-22.988,-27.325,-26.705,-31.705,-28.548,-29.032,-27.957
-49.408,-41.273,-52.004,-46.248,-39.393,-52.697,-47.966,-43.284,-41.293,-38.355,-45.881,-44.039,-53.081,-48.152,-48.238,-47.231
-53.232,-43.503,-55.641,-49.624,-41.879,-56.224,-51.098,-45.995,-43.936,-40.928,-48.968,-46.991,-56.459,-52.003,-51.270,-50.136
-39.627,-32.785,-40.913,-36.463,-31.453,-41.661,-38.115,-34.186,-32.738,-29.783,-36.703,-34.655,-42.323,-38.870,-38.165,-37.050
-17.469,-14.865,-17.768,-16.844,-14.034,-17.868,-16.356,-15.117,-14.894,-12.764,-16.500,-15.404,-18.847,-16.910,-16.811,-15.886
2.348,1.514,3.194,2.116,1.147,2.787,2.544,2.117,1.285,2.351,1.242,2.016,1.968,2.332,2.002,2.722
11.669,9.134,12.510,10.340,7.709,12.621,11.118,9.600,9.061,9.210,9.944,9.977,11.207,11.013,10.454,11.027
8.453,6.198,9.002,7.168,5.486,9.335,7.984,7.308,6.632,6.201,7.099,7.318,8.082,7.954,7.515,8.557
-1.794,-2.246,-2.176,-2.394,-2.971,-1.592,-1.796,-2.251,-2.319,-2.497,-2.668,-1.921,-2.899,-2.182,-2.355,-1.753
-12.888,-11.142,-13.826,-12.267,-11.388,-13.115,-12.287,-11.523,-10.997,-10.497,-12.278,-11.478,-14.524,-12.758,-13.192,-12.542
-19.353,-16.028,-19.995,-17.995,-16.375,-20.221,-18.555,-16.834,-16.413,-14.966,-18.379,-17.132,-21.126,-19.237,-19.237,-18.324
-20.901,-17.349,-21.461,-18.960,-17.745,-21.642,-20.240,-18.068,-17.608,-16.248,-19.656,-18.294,-22.111,-20.624,-20.784,-19.123
-20.143,-16.866,-21.148,-18.775,-17.105,-21.377,-19.902,-17.304,-17.012,-15.794,-18.866,-18.187,-22.142,-20.274,-19.825,-19.232
-21.215,-18.098,-21.994,-19.663,-17.823,-22.432,-20.973,-18.608,-17.562,-16.052,-20.070,-18.943,-22.953,-21.011,-20.773,-20.102
-23.790,-20.279,-25.126,-22.264,-20.454,-24.796,-23.554,-21.053,-20.166,-17.768,-22.754,-21.322,-25.942,-23.405,-23.592,-22.513
-24.808,-20.627,-26.421,-23.254,-20.750,-25.966,-24.638,-21.508,-21.104,-18.850,-23.612,-22.524,-26.891,-24.683,-24.063,-23.604
-19.815,-16.598,-21.304,-19.066,-16.716,-20.928,-19.792,-17.387,-17.334,-15.416,-18.870,-18.006,-21.804,-19.929,-19.210,-18.998
-7.671,-6.171,-8.063,-7.387,-7.129,-7.884,-7.577,-6.204,-6.879,-5.941,-7.401,-6.791,-8.587,-7.362,-7.126,-6.711
9.535,7.461,9.818,8.237,5.931,9.903,8.746,8.255,6.678,6.581,8.137,8.154,9.337,9.007,9.120,8.980
22.570,17.869,23.597,19.809,16.465,23.802,21.604,19.170,17.688,16.741,19.926,19.374,23.513,21.376,21.861,21.467
24.113,19.147,25.395,21.569,17.580,25.098,22.736,20.402,18.366,18.222,20.973,20.821,24.569,22.669,22.957,22.873
10.356,8.220,11.343,8.651,7.082,10.827,9.707,9.165,7.658,7.703,9.176,8.793,10.591,10.079,10.183,10.668
-12.422,-10.810,-13.168,-12.627,-11.279,-13.962,-12.747,-11.255,-10.606,-10.088,-11.710,-11.778,-14.084,-12.371,-12.046,-11.633
-34.477,-28.570,-36.581,-32.446,-28.581,-37.312,-33.743,-30.699,-28.257,-26.032,-31.893,-30.945,-37.268,-34.322,-32.985,-32.650
-43.706,-36.456,-46.514,-41.146,-36.092,-46.849,-42.629,-39.084,-36.416,-33.020,-40.609,-39.058,-47.284,-43.642,-42.163,-41.580
-34.556,-28.911,-36.545,-32.307,-28.496,-37.169,-33.291,-30.378,-28.764,-26.362,-32.283,-30.935,-37.638,-34.421,-33.418,-32.708
-9.510,-8.657,-10.301,-9.402,-8.766,-10.571,-9.111,-8.614,-8.587,-7.795,-9.584,-8.764,-10.756,-10.061,-9.272,-9.097
50.216,40.870,52.929,45.351,37.932,52.617,48.228,43.078,40.104,37.553,45.429,43.623,52.739,48.061,48.171,47.265
71.037,58.054,74.483,65.214,54.573,74.835,68.274,61.415,57.145,53.561,64.193,61.857,74.119,68.553,67.559,67.164
74.219,60.379,77.893,67.746,56.645,78.223,71.179,64.328,59.887,56.375,67.281,64.433,77.642,71.703,70.690,69.702
29.069,23.457,30.266,26.128,21.293,30.249,27.685,25.164,22.743,21.943,25.820,25.027,29.821,27.819,27.245,27.021
5.435,3.885,5.319,3.775,2.654,5.092,4.553,4.665,3.689,3.417,4.316,4.093,4.788,4.448,4.403,4.736
-15.507,-12.911,-16.973,-14.991,-13.776,-16.921,-15.195,-13.775,-13.309,-12.295,-14.549,-14.101,-17.329,-15.961,-15.257,-14.542
-23.654,-20.293,-25.722,-22.762,-20.443,-25.481,-23.346,-21.060,-20.119,-18.194,-22.334,-21.156,-26.512,-24.275,-23.878,-22.650
-17.724,-15.484,-19.231,-17.030,-15.499,-19.353,-17.882,-15.564,-15.255,-13.718,-16.779,-16.210,-20.955,-18.067,-18.288,-17.285
-2.489,-3.247,-3.387,-2.983,-3.762,-2.947,-3.097,-2.467,-2.455,-2.289,-3.325,-3.049,-4.120,-3.311,-3.296,-2.930
13.564,9.908,13.487,11.737,8.529,14.114,12.566,11.917,10.474,9.659,11.501,11.055,13.187,12.523,11.915,12.216
23.705,18.110,24.375,21.811,16.948,24.905,22.197,20.925,18.599,17.645,21.044,19.966,24.101,22.280,21.982,21.641
25.860,20.219,27.329,24.077,19.187,27.674,24.693,22.611,21.084,19.566,23.012,22.077,26.536,25.064,24.477,24.512
23.881,18.823,25.127,21.565,17.445,25.331,22.596,20.753,19.620,18.232,21.027,20.329,24.562,23.162,22.530,21.991
21.663,16.520,22.868,19.352,15.681,22.511,20.458,18.499,17.933,16.366,19.226,18.414,21.841,20.614,20.216,19.838
21.155,16.423,22.351,18.840,15.572,22.432,20.349,18.012,16.915,16.819,18.683,17.936,21.494,19.941,19.919,19.866
21.980,16.830,22.844,19.249,14.918,22.695,20.584,18.120,16.825,16.629,18.980,18.405,22.230,20.264,20.087,20.184
18.929,14.492,19.655,16.279,13.439,19.561,17.984,16.157,14.885,14.427,16.651,15.825,19.649,17.758,17.842,17.597
10.552,8.060,11.188,8.980,7.129,11.572,10.155,9.065,7.870,8.093,9.321,9.009,10.620,9.590,9.881,9.429
-1.493,-1.534,-0.685,-1.799,-2.062,-0.696,-1.069,-0.818,-1.726,-0.895,-1.444,-1.047,-1.358,-1.452,-1.076,-1.387
-9.898,-9.015,-10.405,-9.982,-9.063,-9.702,-9.618,-8.507,-8.879,-8.236,-9.207,-8.879,-10.895,-9.886,-9.871,-9.645
-9.480,-8.247,-9.850,-9.476,-8.417,-8.808,-9.121,-8.213,-8.329,-7.043,-8.309,-8.462,-10.237,-9.587,-9.081,-9.279
3.451,2.700,3.871,3.073,2.067,5.258,3.946,3.750,2.519,3.084,3.482,3.015,3.444,3.257,3.338,3.485
25.303,20.128,26.803,22.536,19.401,27.750,24.797,22.872,20.232,19.300,23.417,22.301,26.334,24.101,24.524,23.857
45.867,37.289,48.884,41.369,35.193,49.339,44.320,40.432,36.816,34.837,41.805,39.724,48.218,44.293,44.047,43.605
54.594,44.632,57.763,49.558,42.381,57.691,52.246,47.445,43.449,41.284,49.701,47.044,56.536,52.667,51.937,51.936
44.993,36.785,47.983,40.995,34.479,48.068,43.068,39.739,36.337,34.154,41.372,38.805,47.044,43.587,42.757,42.838
21.014,16.789,22.384,18.870,15.611,22.453,19.899,18.467,16.560,15.655,18.796,17.488,21.165,19.923,19.451,19.905
-7.868,-6.281,-7.567,-7.422,-6.996,-7.904,-7.933,-6.468,-6.656,-5.831,-6.690,-7.193,-8.672,-7.862,-7.901,-6.958
-27.189,-22.211,-28.118,-25.247,-22.177,-28.713,-26.727,-23.290,-23.033,-20.965,-24.608,-24.108,-29.538,-26.498,-26.047,-25.478
-28.219,-23.739,-29.569,-26.080,-22.998,-29.694,-27.717,-24.374,-23.754,-21.462,-25.640,-25.279,-30.581,-27.642,-27.029,-26.865
-11.469,-9.927,-11.503,-10.363,-9.704,-12.005,-11.463,-9.887,-9.936,-8.967,-10.100,-10.313,-12.560,-11.412,-11.303,-10.672
14.496,11.200,16.227,13.708,10.347,15.747,13.715,13.027,11.367,10.552,13.230,12.472,15.024,13.762,13.413,13.775
36.974,29.919,39.401,33.977,28.398,39.409,35.487,32.350,29.537,27.045,33.720,32.200,38.923,35.644,35.165,35.133
46.097,36.843,48.678,41.885,34.899,48.601,43.925,40.060,36.971,33.969,41.346,39.885,47.771,44.165,43.204,42.905
38.307,30.471,40.541,34.745,28.922,40.413,36.248,32.993,30.305,28.268,34.394,32.780,39.815,36.857,35.892,35.446
19.728,15.547,20.800,17.554,14.278,20.202,18.190,16.908,14.793,13.805,17.539,16.221,20.343,18.355,18.104,18.027
-0.419,-0.429,0.043,-0.803,-1.006,-1.028,-0.527,-0.709,-1.197,-1.062,-0.401,-0.906,-0.344,-1.411,-0.621,0.008
-13.029,-10.923,-13.413,-11.979,-11.068,-13.694,-12.755,-11.100,-11.011,-10.113,-11.899,-12.362,-13.918,-13.348,-12.736,-12.068
-15.188,-13.096,-16.405,-13.904,-13.126,-16.106,-15.188,-13.202,-13.137,-12.290,-14.136,-13.698,-16.297,-15.455,-15.560,-14.440
-10.453,-9.007,-10.994,-9.764,-8.781,-10.969,-10.339,-9.211,-9.678,-8.715,-9.731,-9.410,-11.509,-10.941,-10.813,-9.950
-4.317,-4.206,-4.253,-3.894,-3.970,-4.531,-4.355,-3.755,-4.256,-3.765,-4.071,-4.195,-4.739,-4.982,-4.696,-4.064
-1.166,-0.774,-0.271,-0.309,-1.601,-0.492,-0.805,-0.507,-1.456,-0.909,-0.762,-0.601,-0.784,-1.204,-1.287,-0.652
-0.278,0.286,0.637,0.291,-0.721,0.282,0.030,0.402,-0.611,0.177,0.223,-0.144,0.211,-0.364,-0.598,0.262
0.751,0.769,1.448,0.764,-0.441,1.032,0.738,0.799,-0.263,0.834,0.802,0.579,1.236,0.429,0.093,0.944
4.386,3.808,5.246,4.856,2.635,5.043,4.235,4.088,2.697,3.308,4.123,4.084,4.798,3.976,4.247,4.075
10.942,9.257,11.911,10.426,7.840,11.511,10.507,9.640,7.907,7.906,10.311,9.189,11.538,10.178,10.373,10.356
15.642,12.809,17.138,14.357,11.249,16.607,15.184,13.378,11.816,11.644,14.366,13.361,16.885,15.118,15.070,14.531
13.534,10.803,14.314,12.123,9.654,14.543,12.656,11.471,9.712,10.150,12.206,11.501,14.157,12.910,12.629,12.485
0.703,0.486,0.541,0.360,-0.143,1.003,0.489,0.928,-0.494,0.446,0.814,0.421,0.956,0.384,0.507,0.850
-18.781,-15.871,-20.061,-17.559,-15.737,-19.822,-18.369,-15.773,-16.520,-14.650,-17.384,-16.760,-19.766,-18.746,-18.490,-17.736
-37.549,-31.382,-39.777,-34.378,-30.401,-40.043,-36.340,-31.943,-31.492,-29.000,-34.812,-33.123,-39.345,-37.103,-36.509,-35.541
-45.433,-37.742,-47.997,-40.990,-36.144,-48.605,-44.024,-38.461,-38.137,-34.335,-41.837,-40.072,-47.731,-44.768,-43.896,-43.069
-36.764,-30.341,-38.886,-33.861,-29.491,-38.588,-35.549,-30.989,-31.402,-27.643,-33.466,-32.657,-38.789,-36.353,-35.643,-34.824
-14.057,-11.902,-15.078,-12.849,-11.866,-15.439,-13.562,-11.542,-12.701,-10.863,-13.111,-13.176,-14.683,-14.273,-14.216,-13.566
11.970,9.535,12.110,11.259,8.298,11.878,11.316,10.902,8.788,8.769,10.536,9.681,12.651,10.898,10.632,11.173
28.010,23.316,30.008,26.767,21.667,29.567,27.430,24.927,22.403,21.577,26.031,24.836,30.177,27.414,27.186,27.601
27.320,22.307,28.563,25.644,20.428,28.690,26.556,24.141,21.364,20.494,25.154,23.240,29.010,26.096,25.555,26.351
7.974,6.601,7.911,7.706,5.275,8.043,7.675,7.162,5.969,5.830,7.400,6.329,8.620,7.629,7.172,7.643
-20.548,-16.675,-21.755,-18.091,-17.257,-22.186,-19.876,-17.301,-17.339,-15.698,-18.754,-18.627,-21.117,-19.910,-19.981,-19.270
-44.868,-36.599,-47.307,-40.533,-36.209,-47.713,-43.450,-38.568,-37.472,-33.878,-40.984,-39.580,-46.701,-43.394,-43.293,-42.772
-54.129,-44.122,-57.482,-49.298,-43.190,-57.335,-52.337,-46.920,-44.853,-40.959,-49.072,-48.057,-56.920,-52.568,-52.260,-51.730
-45.853,-37.099,-48.524,-41.889,-36.407,-48.232,-44.326,-39.564,-38.300,-34.552,-41.528,-40.672,-48.055,-44.616,-44.051,-43.394
-24.892,-20.423,-26.713,-22.885,-20.196,-27.001,-24.485,-21.543,-21.584,-18.685,-23.128,-22.346,-26.289,-24.694,-24.332,-23.525
-3.365,-2.617,-4.016,-2.424,-3.620,-3.962,-3.373,-2.902,-3.716,-2.498,-2.982,-3.198,-3.392,-3.625,-3.196,-2.915
9.765,8.310,9.704,9.382,6.677,9.612,9.323,8.751,7.161,7.592,9.014,8.291,10.304,9.458,9.377,9.082
10.543,8.683,10.996,10.283,7.790,10.782,10.045,8.704,7.701,7.721,9.814,8.397,11.041,10.250,9.955,9.500
1.524,1.020,1.264,1.638,0.547,1.716,1.375,0.898,0.444,1.104,1.932,0.887,1.730,1.736,1.526,1.173
-10.115,-7.673,-10.559,-8.613,-8.845,-10.089,-9.712,-8.673,-9.087,-7.460,-8.873,-8.854,-10.967,-9.841,-9.490,-9.553
-18.251,-14.723,-19.445,-16.037,-15.184,-18.586,-17.663,-15.586,-15.872,-13.775,-16.283,-16.040,-19.292,-17.698,-17.199,-17.097
-20.651,-16.886,-22.187,-19.031,-17.070,-21.824,-20.481,-17.920,-17.924,-16.236,-19.008,-18.622,-22.103,-20.426,-20.531,-19.807
-20.771,-16.885,-22.269,-18.577,-16.694,-21.628,-19.475,-18.028,-17.596,-15.726,-18.944,-18.699,-21.539,-19.504,-20.158,-19.536
-20.856,-16.927,-22.570,-18.577,-17.225,-21.915,-19.724,-18.432,-17.462,-16.192,-19.237,-18.628,-22.263,-20.561,-20.516,-19.908
-22.997,-19.023,-25.128,-21.036,-19.253,-23.969,-22.614,-20.013,-19.452,-17.661,-21.620,-20.549,-24.514,-22.843,-22.738,-21.995
-25.619,-20.776,-27.343,-22.803,-21.241,-26.512,-24.665,-22.151,-21.016,-19.348,-23.420,-22.484,-26.622,-24.791,-25.369,-24.093
-23.210,-18.698,-24.718,-20.501,-18.778,-24.056,-22.336,-19.806,-19.358,-17.484,-21.500,-20.529,-24.446,-22.225,-22.508,-21.635
-13.031,-10.089,-13.580,-11.000,-10.856,-13.373,-12.399,-10.855,-11.069,-9.616,-11.728,-11.579,-13.133,-12.561,-12.768,-12.081
3.040,2.922,3.431,3.245,2.047,3.564,3.585,2.978,2.169,2.407,3.151,2.301,3.727,3.235,2.506,3.062
18.761,15.224,19.351,16.937,13.915,19.739,18.376,15.928,14.809,14.092,16.833,15.758,19.940,18.220,17.057,17.682
24.797,20.324,26.023,22.422,18.210,26.398,24.171,21.589,19.830,18.747,22.467,21.087,26.861,24.158,23.179,23.152
16.667,13.088,17.060,15.347,11.805,17.499,15.939,14.003,12.689,12.225,14.473,13.887,17.676,15.863,14.807,15.797
-4.658,-4.002,-5.012,-3.965,-4.954,-4.622,-4.219,-4.075,-4.619,-3.163,-4.420,-5.015,-4.152,-4.681,-4.746,-3.960
-28.475,-23.617,-29.956,-26.024,-23.251,-30.037,-27.143,-24.913,-23.626,-21.678,-26.637,-25.826,-29.259,-27.641,-27.605,-26.948
-43.466,-35.433,-45.811,-39.584,-34.468,-45.188,-41.377,-37.150,-36.059,-32.555,-40.030,-38.395,-45.096,-42.144,-41.728,-41.344
-40.508,-32.937,-42.649,-36.857,-32.506,-42.363,-38.720,-34.950,-33.472,-30.712,-36.781,-35.722,-41.796,-39.599,-38.908,-38.461
-19.613,-15.858,-20.842,-17.743,-16.358,-20.708,-18.535,-17.347,-16.481,-14.829,-17.986,-17.958,-20.132,-19.286,-18.583,-18.716
40.186,32.741,42.510,37.171,30.743,42.470,39.513,34.893,32.246,30.768,37.104,34.519,43.235,38.369,38.043,37.908
65.428,53.184,69.095,59.946,49.989,69.175,63.211,56.651,52.753,49.747,59.830,56.730,69.074,63.187,61.817,62.101
74.851,60.968,79.388,68.739,57.110,79.104,72.534,64.782,60.450,57.178,68.458,64.971,78.745,72.600,71.212,70.410
65.658,53.140,69.189,60.718,50.182,69.336,63.499,56.027,52.948,49.947,59.847,56.964,68.984,63.531,61.945,61.486
13.397,10.519,14.027,12.022,8.775,13.674,12.592,11.156,10.611,9.844,11.895,10.831,13.733,12.441,11.901,12.076
-9.992,-8.814,-10.869,-9.234,-9.216,-10.586,-9.889,-8.543,-8.349,-7.988,-9.168,-9.074,-10.913,-10.253,-10.211,-9.877
-23.460,-19.869,-24.628,-21.819,-19.431,-24.363,-22.617,-19.911,-19.537,-18.333,-20.868,-20.985,-24.945,-23.272,-22.866,-22.517
-22.084,-18.959,-23.083,-20.536,-17.915,-22.567,-21.078,-18.971,-18.232,-17.593,-19.727,-19.912,-22.883,-21.263,-21.570,-21.115
-8.310,-7.869,-9.373,-8.136,-8.166,-8.896,-8.719,-7.751,-7.831,-7.205,-8.266,-8.383,-9.425,-8.724,-9.383,-8.589
8.245,6.180,8.331,7.217,5.102,8.984,7.559,6.646,5.995,6.294,7.124,6.620,8.305,6.814,7.023,7.399
20.955,16.224,21.746,19.260,15.220,22.113,19.706,17.580,16.487,15.636,19.196,17.618,21.528,19.340,19.186,19.295
26.026,20.539,26.870,23.306,18.782,27.308,24.557,21.936,19.997,19.369,23.313,22.043,26.613,24.112,24.125,23.893
24.666,19.399,26.021,22.160,17.954,26.271,23.347,20.792,19.028,18.357,22.206,20.688,25.091,23.108,22.781,22.939
21.650,17.260,22.602,19.884,15.882,23.414,20.587,18.568,16.790,16.087,20.036,18.739,22.324,20.288,19.995,19.713
20.640,16.675,22.061,19.406,15.103,22.394,19.888,17.892,15.980,15.799,19.353,17.637,21.615,19.064,19.126,19.056
21.418,17.293,22.525,19.922,15.570,22.686,20.479,18.491,15.822,16.108,19.463,18.112,22.264,19.744,19.508,19.392
20.287,16.318,20.975,17.939,14.317,21.093,18.913,17.297,15.040,14.614,18.100,16.980,20.711,18.658,18.270,18.372
13.653,10.784,14.423,12.262,9.607,14.327,12.723,11.722,10.461,9.985,12.414,11.137,14.283,12.697,12.253,11.972
3.355,1.771,2.852,2.499,0.990,2.742,2.164,2.491,1.238,1.485,2.056,1.707,2.462,1.751,1.657,1.776
-7.453,-7.181,-8.493,-7.279,-7.057,-8.294,-8.094,-7.056,-6.953,-6.902,-7.783,-7.478,-8.852,-8.142,-8.314,-7.852
-11.450,-9.417,-11.855,-10.087,-9.713,-11.730,-11.216,-9.789,-9.795,-9.404,-10.662,-10.083,-11.869,-11.025,-11.862,-11.118
-2.419,-1.885,-2.536,-1.348,-2.322,-2.337,-2.033,-1.835,-2.406,-1.957,-2.386,-1.996,-2.240,-2.353,-3.106,-2.679
17.570,13.948,18.845,16.757,12.633,18.780,16.730,14.931,13.216,12.867,15.537,15.385,18.244,16.665,15.861,16.262
40.249,32.543,42.114,37.082,30.331,42.164,38.443,34.312,31.255,30.020,36.253,34.712,41.923,38.605,37.699,37.379
53.401,43.566,56.092,49.494,40.819,56.490,51.878,46.115,42.243,40.267,48.801,46.300,55.995,51.086,50.735,50.454
50.140,41.057,52.564,46.622,38.216,53.075,48.882,43.370,39.858,37.445,45.415,43.607,52.552,48.388,47.715,47.409
29.909,24.564,31.226,27.932,22.553,31.994,29.179,25.366,23.317,22.165,26.614,26.213,31.402,28.758,28.153,28.110
1.548,1.055,0.856,1.103,0.664,1.432,1.490,0.795,0.098,0.261,0.295,1.102,1.308,0.775,0.784,1.359
-22.057,-18.243,-23.980,-20.762,-18.085,-23.752,-21.451,-19.848,-19.178,-17.861,-21.442,-19.475,-23.890,-22.150,-21.943,-21.504
-29.878,-24.507,-31.855,-27.761,-24.068,-32.220,-28.570,-26.421,-25.448,-23.582,-28.134,-26.519,-31.675,-29.913,-29.129,-28.756
-18.773,-15.065,-19.880,-17.173,-15.445,-20.347,-17.707,-16.283,-16.330,-15.016,-17.342,-16.553,-19.604,-18.798,-18.259,-18.069
5.956,4.694,5.963,5.589,3.660,5.615,5.883,4.978,3.597,3.273,4.748,4.922,5.897,4.869,4.845,5.157
31.111,25.178,32.106,28.583,22.770,32.083,29.823,26.352,23.499,22.657,27.411,27.038,32.228,29.471,28.448,28.812
45.047,36.563,46.997,41.046,34.015,46.979,43.293,38.922,35.055,33.120,40.105,39.283,46.702,42.906,42.550,41.967
42.834,34.420,43.800,39.022,32.428,44.310,40.772,36.937,33.405,31.207,38.458,37.126,44.032,40.218,40.218,39.663
26.792,21.694,26.984,24.333,19.707,27.497,25.677,23.305,20.085,18.814,23.634,23.165,27.125,25.030,25.072,24.487
6.169,4.848,5.962,5.769,3.444,5.974,6.070,5.234,3.654,3.885,4.591,4.967,5.742,4.715,5.199,4.907
-9.737,-7.968,-10.344,-9.196,-8.523,-10.684,-9.513,-8.452,-8.942,-7.856,-9.143,-8.478,-10.810,-10.655,-9.739,-9.970
-15.102,-12.785,-16.694,-14.431,-13.622,-16.887,-15.302,-13.640,-13.839,-12.366,-14.509,-13.658,-16.979,-16.178,-15.309,-15.133
-12.255,-10.042,-13.727,-11.458,-10.989,-14.004,-12.282,-10.699,-11.248,-9.746,-11.724,-11.427,-13.950,-13.387,-12.271,-12.124
-5.887,-5.058,-6.827,-5.477,-6.102,-7.001,-6.167,-5.034,-5.700,-5.853,-5.763,-5.616,-7.455,-6.840,-6.310,-6.490
-0.843,-0.998,-1.536,-0.850,-1.853,-1.375,-1.429,-0.909,-1.951,-2.188,-1.749,-1.098,-2.113,-2.269,-1.831,-1.559
0.198,0.034,0.023,0.146,-0.745,-0.044,-0.152,0.504,-0.969,-0.632,-0.321,0.356,-0.523,-0.673,-0.082,-0.111
0.553,0.553,0.497,0.349,0.062,0.291,0.438,0.508,-0.367,-0.253,0.226,0.455,-0.166,-0.352,-0.070,0.337
3.638,2.885,2.949,2.933,1.819,2.691,2.929,2.388,1.193,1.354,2.251,2.647,2.776,2.443,2.433,2.860
9.523,7.235,9.290,8.535,6.081,8.972,8.151,7.274,5.477,6.139,7.835,7.708,8.720,8.417,8.436,8.209
15.309,12.252,15.412,13.867,11.234,15.074,14.212,12.478,10.582,11.061,13.446,13.383,15.331,14.127,13.832,14.418
15.792,12.676,16.472,13.857,11.654,15.948,14.584,13.042,11.602,11.163,13.365,13.528,15.810,14.718,14.504,14.838
7.044,5.340,6.333,5.982,4.489,6.106,5.891,5.346,4.092,4.157,5.417,5.236,6.228,5.508,5.680,5.468
-10.902,-9.662,-13.136,-10.798,-9.907,-12.773,-11.537,-9.974,-11.213,-9.663,-11.275,-10.639,-12.967,-12.016,-11.998,-11.678
-31.420,-26.126,-34.203,-29.579,-25.609,-34.312,-30.837,-27.080,-27.244,-24.082,-29.593,-27.961,-34.436,-31.834,-31.305,-30.821
-43.959,-36.235,-47.125,-40.774,-35.699,-47.242,-43.072,-37.931,-37.044,-33.959,-41.161,-38.938,-47.143,-43.758,-43.134,-42.388
-41.680,-33.811,-43.964,-37.820,-33.098,-44.194,-40.207,-35.333,-34.527,-31.870,-38.721,-36.311,-43.443,-40.761,-40.122,-39.584
-22.838,-18.832,-24.013,-20.585,-18.159,-24.332,-22.399,-19.290,-18.890,-17.481,-21.878,-20.224,-24.061,-22.833,-22.376,-21.882
3.645,2.707,3.775,3.471,2.227,3.374,3.380,3.515,1.895,2.734,2.733,2.912,3.886,3.184,2.917,3.203
24.945,20.498,26.104,22.835,18.773,25.904,23.913,21.673,19.190,18.780,22.067,21.777,26.239,23.785,22.926,23.110
30.070,24.519,31.826,27.426,23.182,31.834,29.104,26.584,23.866,22.992,26.512,26.094,32.289,28.717,28.087,27.842
16.141,12.965,17.056,14.402,11.892,17.367,15.704,14.015,12.277,12.340,13.917,13.921,17.524,15.483,14.724,14.915
-10.610,-9.165,-11.389,-10.163,-8.900,-10.876,-10.319,-9.055,-9.488,-7.746,-10.654,-9.803,-10.825,-10.549,-10.747,-10.355
-37.733,-31.091,-40.097,-35.011,-30.990,-39.851,-36.538,-32.094,-31.560,-28.864,-35.581,-33.618,-39.836,-36.782,-36.845,-36.015
-52.727,-43.383,-56.522,-49.033,-42.439,-56.323,-51.115,-45.198,-44.329,-40.533,-49.179,-46.621,-55.787,-51.509,-51.378,-50.823
-50.427,-40.968,-53.334,-46.871,-40.242,-53.067,-48.472,-43.010,-41.843,-38.813,-46.476,-44.160,-52.970,-49.158,-48.738,-48.344
-33.290,-26.813,-34.461,-30.547,-26.467,-34.554,-31.266,-27.527,-27.469,-25.113,-30.588,-28.831,-34.342,-31.485,-31.737,-31.277
-9.859,-8.147,-10.501,-10.061,-8.568,-10.537,-9.606,-8.026,-9.321,-8.465,-9.506,-8.994,-10.676,-9.735,-10.142,-9.904
6.737,5.618,7.084,5.803,4.561,6.946,6.639,5.841,4.405,4.774,5.339,5.585,6.807,6.380,5.902,6.126
11.594,9.896,11.624,10.158,8.621,12.209,10.761,9.854,8.513,8.509,10.282,9.922,12.057,11.102,10.476,10.460
5.384,3.985,5.197,4.050,3.700,5.490,5.023,4.664,3.506,3.849,4.150,4.615,5.394,4.896,4.719,4.575
-6.048,-5.223,-6.647,-6.492,-5.183,-6.323,-5.910,-5.287,-6.050,-5.247,-6.390,-5.706,-7.127,-6.106,-6.227,-6.367
-15.396,-13.100,-17.268,-15.518,-12.677,-16.579,-15.437,-13.806,-13.934,-12.977,-14.857,-14.344,-17.295,-15.510,-15.172,-15.403
-20.470,-16.570,-21.773,-19.132,-16.189,-21.803,-20.265,-17.822,-17.749,-16.766,-19.217,-17.962,-21.661,-20.273,-19.562,-19.865
-21.090,-16.870,-22.127,-19.186,-16.605,-21.972,-20.466,-18.006,-18.165,-16.603,-19.273,-18.560,-22.029,-20.732,-20.523,-20.136
-20.831,-17.037,-22.368,-19.240,-16.236,-21.624,-20.146,-17.917,-17.856,-16.065,-18.622,-18.067,-21.811,-20.110,-19.895,-19.738
-22.387,-18.332,-24.051,-20.521,-17.784,-23.318,-21.321,-18.763,-19.168,-17.454,-20.275,-19.528,-23.945,-21.537,-21.850,-21.470
-24.955,-20.498,-26.728,-23.172,-19.949,-26.158,-23.925,-21.483,-20.820,-19.564,-22.706,-21.833,-26.995,-24.433,-24.330,-23.765
-24.296,-20.232,-25.945,-22.552,-18.961,-25.948,-23.556,-21.042,-20.520,-18.909,-22.155,-21.274,-26.515,-24.510,-23.801,-23.390
-16.392,-14.160,-17.720,-14.964,-13.403,-17.918,-16.311,-14.308,-14.050,-13.115,-15.113,-14.598,-18.166,-16.788,-16.643,-16.387
-2.163,-2.301,-2.427,-1.956,-2.274,-2.719,-1.973,-1.088,-2.097,-2.112,-1.664,-2.010,-2.629,-2.614,-2.303,-2.195
14.466,10.834,15.036,12.821,10.387,14.717,14.124,12.585,11.296,10.442,13.683,12.497,14.816,13.133,13.235,13.570
24.475,18.845,25.299,22.608,18.372,25.302,23.252,21.314,19.143,18.050,22.365,20.807,25.318,22.602,22.916,22.990
20.725,16.217,21.679,19.155,15.747,21.493,20.196,18.373,16.390,15.482,19.135,17.770,21.508,19.039,19.580,19.830
3.730,1.999,3.229,2.958,1.989,3.127,3.130,2.825,1.515,2.483,3.329,2.456,3.104,2.440,2.757,3.730
-20.205,-18.078,-22.358,-19.040,-16.700,-22.362,-19.957,-17.962,-17.703,-16.056,-18.453,-18.417,-22.392,-21.372,-20.552,-19.236
-39.234,-33.454,-42.030,-36.526,-31.569,-42.458,-38.108,-34.633,-33.171,-30.535,-36.076,-34.935,-42.905,-39.572,-38.484,-37.901
-42.838,-36.188,-46.267,-39.239,-34.128,-45.989,-41.866,-37.540,-35.814,-33.038,-39.110,-37.862,-46.080,-42.586,-42.007,-41.377
-27.111,-23.598,-30.084,-25.367,-21.723,-29.375,-27.254,-24.371,-23.228,-21.882,-25.195,-25.070,-29.831,-27.307,-27.058,-26.854
31.270,24.428,32.094,28.687,23.335,32.420,29.030,26.130,24.342,22.962,28.090,26.420,31.375,29.741,28.566,28.918
59.239,47.361,61.864,53.876,44.863,61.687,56.232,50.660,47.241,44.220,53.708,50.830,61.153,57.001,55.992,54.907
74.574,60.357,78.088,68.080,57.651,78.210,71.120,64.201,59.987,56.012,67.574,64.251,77.522,71.879,71.128,69.791
71.204,57.302,74.156,65.205,55.328,74.151,67.643,61.439,57.000,52.618,65.043,61.432,73.930,68.733,68.007,66.766
21.956,17.087,22.459,20.167,16.428,22.600,20.048,18.772,16.839,15.617,19.530,18.131,21.705,20.609,20.336,20.106
-2.532,-2.944,-3.198,-2.676,-2.604,-3.047,-3.009,-2.247,-2.543,-2.441,-2.899,-3.213,-3.733,-2.691,-3.077,-3.276
-19.564,-16.891,-21.862,-18.920,-15.898,-21.348,-19.243,-17.383,-17.187,-16.060,-18.478,-18.500,-22.183,-19.917,-19.628,-19.309
-23.240,-19.485,-25.924,-22.319,-19.103,-25.183,-22.711,-20.347,-19.664,-19.109,-21.747,-21.398,-25.611,-23.043,-22.972,-22.512
-13.661,-11.242,-15.361,-12.851,-11.518,-14.614,-13.053,-12.044,-12.062,-11.223,-12.689,-12.734,-15.109,-13.871,-13.576,-13.102
3.206,2.095,2.392,2.220,2.042,2.783,2.814,2.423,1.464,1.306,2.236,1.708,2.459,1.997,2.009,2.293
17.986,14.068,18.003,15.569,13.771,17.952,16.864,14.988,13.707,12.731,15.702,14.597,18.085,16.118,16.192,16.842
25.587,20.233,25.674,22.057,18.990,26.664,23.988,21.719,19.499,18.282,22.135,21.438,25.998,23.296,23.217,23.564
25.988,20.688,26.589,23.007,19.280,26.737,24.754,22.389,20.244,18.778,22.998,21.747,26.259,23.952,23.840,23.719
23.308,18.408,23.957,20.642,17.676,23.799,22.202,19.677,17.563,16.086,20.569,19.217,22.785,21.256,21.291,21.152
21.645,17.058,21.731,18.967,16.726,21.444,20.540,17.935,16.293,15.081,18.997,17.657,21.576,19.627,19.202,19.831
21.955,17.158,21.870,19.069,16.356,21.967,20.460,18.022,16.678,15.562,19.168,18.114,21.569,20.045,20.087,19.557
21.535,16.879,21.416,18.536,16.225,21.921,20.028,17.949,16.388,15.233,19.054,18.008,21.133,19.661,19.454,19.151
16.622,13.121,16.802,14.912,12.651,16.892,15.547,14.189,12.579,11.805,14.812,13.955,16.192,15.365,14.885,15.264
7.428,4.623,6.209,5.689,5.047,6.751,6.372,6.113,4.983,4.216,5.594,5.922,5.832,5.663,5.629,5.505
-4.266,-4.271,-5.510,-4.758,-4.226,-5.156,-4.498,-3.935,-4.284,-4.765,-5.028,-4.065,-6.077,-5.343,-5.138,-4.976
-10.595,-9.755,-11.525,-10.501,-8.592,-11.650,-10.897,-9.538,-9.038,-9.342,-10.083,-9.638,-12.444,-12.016,-10.900,-11.197
-5.703,-5.848,-6.582,-6.022,-4.772,-6.595,-6.297,-5.434,-5.168,-4.714,-5.892,-5.215,-7.155,-7.296,-6.303,-6.587
11.201,8.134,10.920,9.366,7.896,11.132,10.383,8.989,8.465,8.282,9.634,9.260,10.893,9.099,9.224,9.184
33.785,26.614,34.610,30.027,25.600,35.066,32.219,28.810,26.605,24.773,30.591,29.023,33.931,31.417,31.117,30.779
51.455,40.825,53.126,46.086,39.349,53.997,49.144,44.155,41.533,38.393,46.732,44.577,52.825,48.442,47.716,47.621
54.213,43.072,56.203,49.050,41.539,56.770,51.487,46.418,43.417,40.489,48.966,46.883,55.906,51.113,50.751,49.999
39.034,31.208,39.947,35.253,29.667,40.445,36.911,33.288,31.031,28.699,35.134,33.937,39.659,37.074,36.554,36.242
11.597,8.873,11.657,9.634,8.243,11.660,10.832,9.852,8.381,7.812,10.385,9.413,11.215,10.338,10.907,9.870
-15.803,-13.060,-16.838,-14.791,-12.814,-17.155,-15.058,-13.273,-13.163,-12.127,-14.136,-14.079,-17.024,-15.826,-14.909,-15.154
-29.113,-24.196,-31.721,-28.117,-23.530,-31.112,-28.223,-25.343,-24.212,-22.864,-26.593,-26.282,-31.769,-29.584,-28.642,-28.223
-24.019,-19.543,-26.325,-23.016,-19.524,-25.689,-23.311,-20.915,-20.142,-19.560,-22.236,-21.320,-26.113,-24.128,-23.388,-23.140
-2.911,-2.255,-3.862,-3.241,-2.603,-2.911,-3.173,-2.880,-2.978,-3.225,-2.887,-2.857,-4.131,-3.314,-3.169,-3.185
23.737,18.895,24.046,21.184,17.482,24.949,22.159,20.456,18.619,16.994,21.785,20.219,23.815,21.982,22.313,22.157
42.265,34.149,43.484,38.288,32.259,44.075,40.373,36.731,33.242,31.345,38.410,36.574,43.871,39.985,40.320,39.178
45.620,36.315,46.931,40.681,34.469,47.144,43.344,39.117,35.783,33.812,41.296,38.742,46.896,43.032,43.177,41.926
33.155,26.403,33.807,29.254,24.621,34.366,31.332,28.717,25.977,24.585,29.734,27.904,33.463,31.312,31.354,30.473
12.715,10.298,12.604,10.602,9.238,12.932,11.563,10.921,9.802,9.584,11.555,10.793,12.416,12.001,11.566,11.360
-5.377,-4.519,-6.309,-5.592,-4.681,-5.964,-5.545,-4.466,-5.153,-4.669,-4.764,-5.132,-6.882,-5.388,-5.400,-5.940
-14.460,-11.874,-15.937,-13.655,-11.974,-16.083,-14.440,-12.400,-12.387,-11.928,-13.107,-12.838,-16.456,-14.906,-14.880,-14.117
-13.901,-11.580,-15.409,-13.069,-11.591,-15.122,-13.880,-12.146,-12.098,-11.505,-12.652,-12.069,-15.708,-14.121,-14.050,-13.517
-8.034,-6.822,-9.086,-7.699,-6.842,-9.173,-7.832,-7.123,-8.131,-6.888,-7.266,-7.091,-9.389,-8.105,-8.001,-8.507
-2.537,-2.376,-3.009,-2.217,-2.239,-3.009,-2.244,-2.048,-2.770,-2.479,-2.097,-2.429,-3.395,-2.480,-2.588,-3.055
0.220,0.003,-0.118,0.482,0.141,0.245,0.190,0.264,-0.539,-0.398,0.350,0.068,-0.882,-0.090,-0.334,-0.315
0.290,-0.062,0.131,1.091,0.049,-0.015,0.569,0.614,-0.432,0.103,0.735,0.534,-0.290,0.397,0.048,-0.198
1.990,0.901,1.389,1.884,1.079,1.776,2.269,1.840,1.407,0.689,1.615,1.844,1.192,1.786,0.902,1.190
6.671,4.767,6.748,6.613,5.134,7.177,6.405,6.180,4.762,4.685,6.671,6.228,6.407,6.201,6.012,5.879
13.067,10.447,13.055,12.535,9.845,13.551,12.508,11.772,9.956,10.001,12.849,11.817,13.443,12.356,12.178,12.039
15.964,12.648,16.182,15.272,11.656,16.510,15.794,14.303,12.261,11.970,15.002,14.540,16.268,15.146,15.675,14.753
10.717,8.288,10.508,10.001,7.974,10.724,10.059,9.128,7.975,7.280,9.835,9.558,9.851,9.902,9.625,9.357
-5.270,-4.235,-5.645,-4.611,-4.323,-5.964,-5.042,-4.549,-5.073,-3.978,-4.448,-4.391,-6.857,-5.133,-4.948,-4.857
-25.621,-21.353,-27.471,-24.015,-20.564,-27.532,-24.895,-22.116,-21.564,-19.251,-23.253,-22.642,-27.902,-25.327,-24.883,-24.575
-41.631,-34.623,-44.211,-38.110,-33.277,-44.391,-40.346,-35.486,-34.719,-31.916,-38.026,-36.899,-44.650,-40.976,-40.130,-39.761
-43.765,-37.253,-46.918,-40.507,-35.108,-46.840,-42.621,-37.627,-36.092,-34.053,-40.279,-38.926,-47.780,-43.927,-42.665,-42.025
-29.883,-25.678,-32.496,-27.909,-23.601,-32.161,-29.296,-25.441,-24.786,-23.019,-27.476,-26.307,-33.330,-29.707,-29.448,-28.899
-4.691,-4.850,-6.441,-5.111,-4.417,-5.803,-4.970,-3.515,-4.777,-3.912,-4.854,-4.494,-6.845,-5.824,-5.608,-5.181
19.974,15.268,19.845,17.305,14.409,19.958,18.233,16.945,14.876,14.332,17.200,17.015,19.381,17.846,17.721,17.397
31.229,24.633,31.803,27.830,23.299,32.049,29.064,26.412,23.879,23.414,27.633,26.806,31.560,29.352,28.492,27.895
23.443,18.505,23.425,20.894,17.399,23.864,21.342,19.976,17.661,17.435,20.670,19.727,23.444,22.078,21.325,20.882
-0.665,-0.678,-1.740,-1.177,-1.320,-1.525,-1.189,-0.466,-1.516,-0.239,-0.576,-1.113,-1.537,-1.011,-1.646,-1.268
-29.480,-24.296,-31.805,-27.287,-24.018,-31.535,-28.653,-25.240,-24.694,-22.036,-26.656,-26.069,-32.002,-29.041,-28.873,-28.302
-50.022,-40.864,-53.164,-46.260,-39.802,-53.032,-48.383,-42.720,-41.088,-37.496,-45.016,-43.545,-53.313,-48.687,-47.791,-47.481
-52.691,-43.565,-56.578,-48.809,-42.579,-56.661,-51.804,-45.831,-43.761,-40.032,-47.849,-46.487,-56.561,-52.009,-50.765,-50.195
-39.410,-32.227,-42.465,-36.200,-31.868,-42.386,-38.382,-33.912,-33.084,-29.523,-35.906,-34.984,-42.659,-38.501,-38.107,-37.325
-17.324,-14.332,-19.027,-15.894,-14.422,-18.599,-16.840,-14.869,-14.829,-12.666,-15.430,-15.551,-19.409,-16.757,-17.148,-16.505
2.298,1.389,1.678,2.560,1.172,2.392,2.186,2.816,1.210,1.463,2.296,1.726,1.514,1.817,2.032,2.286
11.780,9.060,11.772,10.489,8.302,12.224,10.612,10.696,8.556,8.227,10.805,9.630,11.674,10.893,10.976,10.699
8.333,6.567,8.372,8.317,6.377,9.263,7.483,7.817,5.697,5.735,7.691,6.796,8.454,7.830,7.685,7.871
-2.024,-2.045,-2.751,-1.522,-1.815,-2.008,-2.684,-1.385,-2.545,-2.352,-2.137,-2.648,-2.773,-2.787,-1.927,-2.172
-13.300,-11.059,-14.284,-11.872,-10.060,-13.619,-13.274,-11.143,-11.420,-9.714,-12.060,-11.858,-14.655,-13.391,-12.257,-11.916
-19.120,-16.170,-21.356,-17.509,-15.343,-20.091,-19.108,-16.700,-16.714,-14.918,-18.007,-17.649,-21.329,-19.682,-18.613,-18.005
-21.270,-17.192,-22.777,-18.767,-16.980,-22.047,-20.590,-17.693,-17.821,-16.480,-19.148,-19.116,-22.875,-20.657,-20.163,-19.193
-20.417,-16.881,-21.914,-18.423,-16.476,-21.926,-19.952,-17.157,-17.250,-16.097,-19.042,-18.377,-22.445,-20.132,-20.332,-18.881
-21.525,-17.856,-23.024,-20.084,-17.106,-22.425,-20.827,-18.279,-18.062,-16.575,-19.860,-19.461,-23.093,-20.670,-21.123,-19.999
-23.898,-19.819,-26.254,-22.285,-19.343,-25.710,-23.133,-20.437,-20.344,-18.779,-21.811,-21.793,-26.255,-23.394,-23.372,-22.527
-25.156,-20.619,-27.182,-22.903,-19.840,-26.858,-24.211,-21.674,-21.119,-19.871,-22.751,-22.806,-27.187,-24.260,-24.394,-24.058
-20.067,-16.865,-21.771,-18.427,-15.912,-21.583,-19.682,-17.444,-17.329,-16.137,-18.495,-18.073,-21.938,-19.970,-19.947,-19.003
-7.864,-6.117,-8.450,-7.133,-5.881,-8.814,-7.790,-6.587,-6.714,-6.368,-7.195,-7.240,-8.325,-7.540,-7.734,-7.111
8.778,7.698,9.138,8.302,6.721,9.115,8.456,7.712,6.674,6.598,8.650,7.815,9.149,8.701,8.312,8.384
22.311,18.122,23.150,20.429,17.645,23.074,21.235,18.898,17.137,16.756,20.486,19.207,23.229,21.483,20.984,20.891
23.716,19.140,25.125,21.305,18.528,24.436,22.621,20.164,18.417,17.894,21.908,20.365,24.612,22.774,22.505,22.580
10.907,8.390,10.538,9.241,7.791,10.670,10.031,9.038,7.675,7.905,9.739,8.771,10.435,10.037,9.681,10.114
-12.307,-10.271,-13.685,-11.942,-9.909,-13.790,-12.630,-11.121,-11.130,-9.574,-11.549,-11.621,-13.811,-12.711,-12.428,-11.874
-34.407,-28.777,-36.990,-32.330,-27.377,-37.447,-33.859,-30.515,-28.992,-26.776,-31.508,-30.775,-37.083,-33.886,-33.395,-32.836
-44.058,-36.487,-46.746,-40.725,-34.531,-47.334,-42.638,-38.184,-36.257,-33.438,-40.133,-39.384,-46.621,-42.743,-42.703,-41.751
-34.821,-28.692,-37.005,-31.994,-27.799,-37.189,-33.862,-29.793,-28.616,-26.543,-31.034,-31.286,-36.945,-34.034,-33.981,-33.064
-10.346,-8.184,-10.497,-8.860,-8.074,-10.755,-10.066,-8.678,-8.081,-7.547,-8.542,-9.390,-10.661,-10.093,-9.646,-9.360
50.121,40.741,52.928,46.355,39.050,52.699,47.978,42.905,40.906,38.417,46.236,43.222,52.543,48.504,47.867,47.200
70.581,57.873,74.313,64.976,55.212,74.789,67.850,60.415,57.337,54.021,65.454,61.505,74.325,68.374,67.919,67.088
73.728,60.427,77.945,67.615,57.249,77.701,70.988,63.516,59.635,56.030,67.703,64.035,77.027,71.156,70.449,69.312
28.833,23.616,30.306,26.474,22.351,30.262,27.962,24.729,23.487,22.409,26.457,24.451,29.610,27.280,27.357,26.880
5.318,3.932,5.125,4.926,3.722,4.939,5.142,4.050,4.072,4.225,4.995,3.635,4.573,4.112,4.753,4.797
-15.897,-13.114,-17.112,-14.206,-12.819,-17.519,-15.114,-14.075,-13.116,-11.482,-14.297,-14.235,-17.566,-16.154,-15.118,-15.078
-24.201,-20.391,-26.206,-22.048,-19.504,-26.333,-23.297,-21.387,-20.034,-18.133,-22.074,-21.455,-26.437,-24.369,-23.440,-22.965
-18.332,-15.365,-19.763,-16.533,-14.535,-20.068,-17.755,-16.436,-15.307,-13.542,-16.658,-16.662,-20.150,-18.152,-17.531,-17.523
-3.163,-2.829,-3.576,-2.794,-2.509,-3.709,-3.257,-3.659,-3.333,-2.045,-2.088,-3.399,-4.095,-3.513,-3.605,-3.014
13.082,9.850,13.288,11.987,10.395,13.432,12.254,10.986,9.754,10.261,12.232,10.808,12.696,11.974,11.565,12.252
23.540,17.945,24.108,21.392,17.686,24.066,21.985,19.801,17.873,17.715,21.483,19.838,23.690,22.239,21.430,21.720
26.107,20.433,26.819,23.421,19.842,26.535,24.414,22.197,19.903,19.754,23.365,22.254,26.088,24.466,24.045,24.112
24.435,18.635,24.567,21.769,18.048,24.280,22.453,20.195,17.935,17.557,21.465,20.290,24.475,22.449,22.061,22.071
22.228,16.492,21.653,19.674,16.666,21.865,19.944,18.237,16.784,16.136,19.024,17.847,22.033,20.009,19.842,19.896
21.932,16.911,21.480,19.254,16.580,21.168,19.739,17.768,16.639,15.947,18.904,17.188,22.033,19.980,19.645,19.989
21.906,17.201,21.890,19.837,16.693,22.276,20.396,18.278,16.717,15.376,19.376,17.807,22.119,20.580,19.978,20.377
18.667,14.917,18.783,17.148,14.722,18.902,17.653,15.982,14.452,13.859,16.677,15.444,19.065,17.499,17.239,17.044
10.242,8.675,10.907,9.400,8.044,10.037,9.587,8.901,8.111,7.628,9.271,8.263,10.152,9.858,9.229,9.478
-1.272,-0.729,-1.371,-1.335,-1.493,-2.104,-1.555,-1.166,-1.386,-1.446,-1.239,-1.968,-2.365,-1.860,-1.541,-1.108
-10.139,-8.062,-11.066,-9.505,-8.301,-11.459,-9.918,-8.827,-8.928,-8.072,-9.515,-9.695,-11.171,-10.411,-10.474,-9.693
-9.555,-7.197,-10.103,-8.824,-7.532,-10.155,-9.339,-7.992,-8.363,-7.664,-8.867,-8.803,-10.355,-9.879,-10.019,-9.135
3.834,3.316,3.664,3.813,2.323,3.656,3.300,3.456,2.287,2.386,2.839,2.873,3.186,3.195,2.528,3.500
25.321,21.182,26.437,23.485,19.600,27.131,24.360,21.970,19.936,18.722,23.139,22.035,26.127,24.191,23.897,24.118
46.424,37.850,48.387,42.898,35.773,48.460,43.657,40.224,36.751,34.652,41.698,39.689,47.740,44.354,43.953,43.259
55.027,44.943,57.396,50.754,42.272,57.195,51.709,47.776,43.597,41.116,49.802,47.126,57.022,52.633,51.793,51.559
45.812,37.455,47.507,42.038,34.876,47.845,43.036,39.670,36.116,34.080,41.274,38.922,46.905,43.115,42.831,42.465
21.289,17.048,22.059,19.162,15.999,21.814,19.760,18.461,16.220,15.655,19.037,17.602,21.421,19.591,19.570,19.202
-7.028,-6.255,-8.228,-7.205,-6.211,-8.539,-7.858,-6.373,-6.872,-6.083,-7.515,-6.913,-8.786,-7.990,-7.803,-7.658
-26.520,-21.975,-28.571,-25.053,-21.173,-28.935,-26.598,-23.056,-22.610,-21.617,-25.071,-23.775,-29.482,-27.152,-26.536,-26.195
-27.472,-23.014,-29.990,-25.611,-22.312,-29.854,-27.664,-24.071,-23.757,-22.073,-26.283,-25.067,-30.534,-28.621,-27.759,-26.764
-10.576,-9.184,-12.313,-10.358,-9.350,-12.170,-11.080,-9.616,-10.651,-9.242,-10.947,-10.310,-12.796,-11.688,-11.651,-10.214
15.017,12.212,15.297,14.422,11.289,15.536,14.318,13.233,10.643,10.515,13.352,12.627,14.510,13.579,13.579,13.791
37.753,30.663,39.414,35.008,28.922,39.604,36.167,32.202,29.157,27.873,34.118,32.402,38.077,35.432,34.924,35.288
46.360,37.549,48.274,42.785,35.615,48.739,44.387,39.759,36.532,34.724,42.155,39.766,47.597,43.983,43.382,43.400
38.765,31.231,40.210,35.227,29.697,40.464,36.693,32.890,30.089,28.986,34.755,32.964,39.315,36.009,36.083,35.791
19.575,15.847,20.959,18.051,15.217,20.381,18.447,16.963,14.981,14.802,17.432,16.611,20.334,18.000,18.325,18.110
0.114,-0.460,-0.256,0.177,-0.652,-0.460,-0.537,-0.136,-0.914,-0.462,-0.674,-0.875,-1.075,-0.873,-0.445,-0.334
-12.530,-10.689,-13.866,-11.573,-10.608,-14.059,-12.411,-11.152,-11.311,-10.399,-12.062,-11.580,-14.639,-13.324,-12.512,-12.579
-14.954,-12.603,-16.425,-13.299,-12.261,-16.321,-14.738,-13.378,-13.683,-12.125,-14.616,-13.574,-17.148,-15.872,-15.060,-14.477
-9.906,-8.244,-11.305,-9.028,-8.490,-11.378,-10.188,-8.379,-9.599,-8.547,-10.103,-9.598,-12.353,-10.825,-10.308,-9.677
-3.810,-3.307,-4.458,-3.312,-3.495,-4.605,-4.123,-2.933,-4.294,-3.281,-3.995,-3.894,-5.199,-4.861,-4.477,-3.966
-0.542,-0.229,-0.327,0.093,-0.590,-0.530,-0.104,0.110,-1.347,-0.818,-0.719,-0.731,-1.009,-1.362,-0.806,-0.702
0.590,0.293,0.279,0.708,-0.033,0.258,0.171,0.575,-0.466,-0.346,0.092,-0.066,-0.410,-0.430,-0.267,0.289
1.337,1.165,1.307,1.219,0.495,1.022,0.898,1.228,0.498,0.615,0.871,0.649,0.077,0.154,0.834,1.329
5.252,4.162,4.913,4.944,3.532,5.130,4.760,4.688,2.864,3.255,4.420,3.934,3.893,4.057,4.398,4.772
11.072,8.996,11.696,10.785,8.254,11.596,11.001,10.153,8.522,8.214,10.384,9.549,10.705,10.531,10.487,10.786
16.295,13.107,17.092,15.131,12.561,16.512,15.331,14.622,12.722,12.157,14.460,13.718,15.998,14.587,14.678,15.226
13.768,11.029,14.410,13.054,10.744,14.157,13.215,12.685,10.740,10.762,12.500,11.863,13.344,12.337,12.647,12.510
0.785,0.889,0.646,1.573,0.685,1.020,0.724,1.488,0.723,1.148,0.854,0.869,0.469,0.531,0.448,0.597
-18.827,-15.534,-20.400,-17.412,-14.786,-20.439,-18.019,-15.809,-15.281,-14.458,-17.036,-16.540,-20.766,-18.367,-18.477,-17.870
-37.507,-30.537,-40.013,-34.375,-29.370,-40.287,-36.356,-32.155,-30.439,-28.210,-34.418,-33.006,-40.656,-36.637,-36.272,-35.411
-45.584,-36.789,-47.828,-41.324,-35.677,-48.045,-44.105,-38.823,-37.166,-34.575,-41.929,-39.766,-48.646,-44.638,-43.712,-42.752
-36.669,-29.483,-38.288,-33.366,-28.683,-39.190,-35.730,-31.429,-30.175,-28.275,-34.208,-32.223,-39.581,-36.454,-35.415,-34.353
-14.684,-11.350,-15.072,-13.096,-11.580,-15.242,-14.224,-11.685,-12.184,-11.689,-13.299,-12.790,-15.412,-14.467,-13.719,-13.483
11.574,10.255,12.160,10.916,9.182,12.173,11.170,10.497,9.176,8.704,10.661,10.117,11.466,10.698,11.079,11.256
28.598,23.564,30.224,26.389,22.521,30.396,27.469,25.175,23.238,21.561,26.229,24.670,29.519,27.420,27.216,27.232
27.799,22.817,28.926,25.678,21.210,28.776,26.112,24.223,22.481,20.722,24.950,23.389,28.185,26.445,26.097,26.354
8.569,6.797,8.028,7.585,6.094,7.937,7.479,6.972,6.851,6.354,7.011,6.635,7.669,7.779,7.768,8.057
-19.809,-16.838,-21.813,-18.494,-16.391,-21.912,-20.097,-17.367,-16.794,-14.973,-18.873,-17.824,-22.104,-20.257,-19.752,-18.571
-44.086,-36.916,-47.850,-40.628,-35.256,-47.435,-43.911,-38.523,-36.607,-33.766,-41.018,-39.507,-47.910,-43.503,-42.935,-41.809
-53.539,-44.782,-57.951,-49.247,-42.737,-56.986,-52.921,-46.444,-44.527,-40.949,-49.647,-47.988,-57.879,-52.895,-51.820,-50.852
-45.762,-37.426,-48.736,-41.416,-36.485,-48.389,-44.593,-39.183,-37.337,-34.781,-41.768,-40.343,-48.886,-44.578,-43.999,-42.893
-25.214,-20.487,-26.724,-22.354,-20.471,-26.608,-24.417,-21.395,-20.426,-19.052,-22.655,-22.256,-26.810,-24.722,-24.254,-23.864
-3.820,-2.978,-3.818,-2.510,-3.364,-3.678,-3.324,-2.865,-2.561,-2.194,-3.076,-3.053,-4.292,-3.527,-3.557,-3.033
9.830,7.588,9.762,9.545,7.392,10.413,9.219,8.440,7.958,8.003,9.345,7.924,9.839,9.476,9.257,9.303
10.710,8.257,10.663,10.678,7.689,10.975,9.921,9.163,8.376,8.631,9.450,8.817,10.677,10.175,10.094,10.300
1.838,1.214,1.051,1.952,0.597,1.448,1.041,1.825,1.118,1.713,1.545,0.637,1.318,1.287,1.195,1.739
-9.717,-8.562,-11.683,-8.489,-8.408,-10.544,-10.031,-8.314,-8.188,-6.881,-9.077,-9.265,-10.838,-9.949,-9.809,-9.333
-17.849,-15.207,-20.111,-15.928,-14.795,-19.130,-17.908,-15.244,-14.576,-13.212,-16.414,-16.131,-19.463,-17.429,-17.639,-16.833
-21.487,-17.991,-22.671,-18.361,-16.958,-22.247,-20.557,-17.951,-16.831,-15.570,-18.939,-18.279,-22.518,-20.596,-19.695,-19.423
-20.731,-17.787,-22.090,-18.268,-16.824,-21.790,-20.378,-17.781,-16.934,-15.314,-18.525,-17.927,-22.496,-20.418,-19.482,-19.373
-21.155,-17.927,-22.617,-18.050,-17.328,-21.811,-20.555,-17.958,-17.326,-15.065,-18.902,-18.291,-22.400,-20.290,-19.735,-19.569
-23.556,-19.583,-24.726,-20.784,-18.576,-24.518,-22.474,-19.911,-19.125,-17.397,-21.022,-20.515,-24.692,-22.055,-22.047,-22.020
-25.403,-21.071,-26.992,-22.934,-20.179,-26.619,-24.498,-21.643,-20.905,-19.239,-22.879,-21.962,-27.249,-24.064,-23.960,-24.692
-22.532,-18.795,-24.200,-20.684,-17.994,-23.834,-22.440,-19.841,-18.692,-16.975,-20.756,-20.000,-24.923,-21.767,-21.741,-21.412
-12.469,-10.643,-13.688,-10.895,-10.311,-13.359,-12.532,-10.728,-9.771,-9.063,-11.589,-11.133,-14.320,-12.211,-12.126,-12.016
3.574,2.345,3.157,3.584,1.991,3.573,2.640,3.417,2.607,2.651,3.093,2.797,2.742,3.586,3.389,3.319
18.670,14.811,19.259,18.041,14.431,19.926,17.640,16.433,15.023,14.541,16.822,16.221,18.493,18.306,18.452,17.507
24.765,19.950,25.278,23.324,19.101,26.377,23.616,21.322,19.919,18.879,22.494,21.429,24.637,23.948,23.984,23.293
16.114,12.953,16.597,15.344,12.151,16.941,15.321,13.385,12.975,12.616,14.354,13.885,16.245,15.680,15.940,15.135
-4.503,-4.014,-5.235,-4.261,-4.054,-4.887,-4.582,-4.172,-4.559,-3.669,-4.524,-4.366,-5.647,-4.544,-4.512,-4.633
-28.224,-23.503,-30.501,-25.715,-22.665,-29.937,-27.416,-24.619,-23.370,-21.059,-26.516,-24.957,-30.805,-27.740,-26.972,-27.717
-43.135,-35.632,-45.602,-39.688,-34.216,-45.445,-41.667,-37.309,-35.376,-32.273,-39.827,-37.828,-46.327,-41.963,-40.909,-41.470
-39.797,-32.862,-42.836,-37.166,-31.755,-42.418,-39.022,-34.592,-32.901,-30.003,-36.888,-35.347,-42.584,-39.276,-38.242,-39.016
-19.033,-16.004,-21.285,-18.062,-15.436,-20.438,-18.674,-16.785,-15.592,-14.097,-17.812,-17.030,-20.814,-19.063,-18.531,-18.802
40.809,32.685,42.007,37.459,31.348,42.426,39.249,35.126,33.130,30.880,36.609,35.522,42.168,39.005,38.573,38.306
65.739,53.327,68.761,60.602,51.006,69.103,63.354,56.870,53.416,49.657,60.220,57.613,68.598,63.342,62.595,62.186
75.616,60.866,78.824,69.661,58.584,79.100,72.172,65.317,61.375,56.520,68.406,65.506,79.066,72.580,71.756,70.977
66.235,53.254,68.704,60.415,51.202,68.886,63.131,56.947,53.266,49.344,59.851,57.271,69.444,63.280,62.549,61.874
14.172,10.451,13.490,12.212,10.037,13.529,12.276,11.624,10.528,10.009,11.409,11.708,13.887,12.105,12.720,12.748
-9.403,-8.342,-10.731,-9.142,-8.057,-10.967,-9.741,-8.923,-8.237,-7.658,-9.561,-8.616,-10.759,-10.306,-9.319,-9.033
-22.712,-19.706,-24.733,-20.759,-18.468,-24.912,-22.635,-19.853,-19.244,-17.774,-21.987,-20.197,-24.947,-22.772,-22.337,-21.989
-21.844,-18.624,-23.556,-20.179,-17.225,-23.521,-21.082,-19.140,-18.123,-16.572,-20.503,-19.323,-23.629,-21.478,-21.039,-20.458
-8.790,-7.858,-9.609,-7.792,-7.104,-9.703,-8.369,-7.294,-7.737,-6.879,-8.414,-7.859,-10.135,-8.586,-8.557,-8.507
8.593,5.860,8.540,7.778,6.290,8.031,7.867,7.163,6.107,5.916,6.929,7.284,7.852,7.291,7.699,7.601
20.740,16.640,21.298,19.351,16.293,21.230,20.208,18.322,16.236,15.522,18.779,18.262,21.051,19.775,19.459,19.366
25.580,20.442,26.333,23.746,19.710,26.313,24.695,22.648,20.696,19.810,23.320,22.719,26.583,24.766,24.242,24.199
24.377,19.392,24.932,23.083,18.786,25.444,23.589,21.368,20.008,18.705,22.076,21.535,25.214,23.656,23.082,23.128
22.084,17.400,21.722,20.381,16.613,22.705,21.057,19.254,17.616,16.367,19.283,19.037,22.389,21.027,21.072,20.666
20.809,16.462,20.591,18.985,15.898,21.634,20.182,17.912,17.363,15.335,18.488,18.210,21.023,19.662,19.837,19.657
21.196,16.551,20.981,19.665,16.139,22.240,20.475,18.570,17.390,15.844,19.214,18.549,21.531,20.205,20.009,20.131
20.069,15.817,19.654,18.396,15.179,21.062,19.243,17.452,16.098,14.650,17.938,17.479,20.273,19.079,18.890,18.769
13.591,10.963,13.369,12.630,10.410,14.073,12.790,11.709,10.824,10.283,12.315,12.196,13.226,13.092,12.734,12.893
2.835,2.080,1.902,2.428,2.002,2.471,2.318,2.657,2.235,1.959,2.066,2.454,1.634,2.056,2.231,2.306
-7.489,-7.249,-8.876,-7.012,-6.442,-8.858,-7.861,-6.216,-5.815,-6.291,-7.483,-7.103,-10.094,-8.548,-7.582,-7.605
-10.747,-9.617,-12.007,-9.609,-9.398,-12.156,-10.603,-9.285,-8.911,-8.650,-10.478,-9.640,-13.331,-10.844,-10.499,-10.217
-2.141,-2.264,-2.890,-1.749,-2.189,-3.048,-2.163,-1.325,-0.991,-2.404,-1.903,-1.405,-3.418,-2.148,-1.913,-2.154
18.197,13.769,18.168,16.502,13.525,17.850,16.997,15.384,15.183,12.654,16.370,15.438,17.099,16.732,17.181,16.788
40.526,31.852,41.308,36.848,31.160,41.699,38.227,34.776,33.257,29.979,36.564,35.227,40.669,38.379,38.290,37.843
53.928,42.654,56.065,49.801,42.103,56.128,51.353,46.548,44.590,40.299,48.846,47.099,54.807,51.680,50.954,50.608
50.887,40.086,52.290,46.922,38.997,53.102,47.848,43.814,41.973,38.196,46.112,44.346,51.924,48.549,47.909,47.634
30.624,23.764,31.106,28.259,23.333,31.163,28.161,26.566,24.858,22.823,27.446,26.634,30.750,29.172,28.500,28.405
1.956,0.562,0.748,1.899,0.715,0.665,0.908,1.450,1.355,1.058,1.154,1.908,0.563,1.283,1.644,1.175
-21.944,-18.647,-24.374,-20.323,-17.753,-24.027,-22.104,-19.555,-17.485,-16.773,-20.837,-18.910,-24.704,-21.610,-21.294,-21.348
-30.079,-25.778,-32.653,-27.540,-23.806,-32.236,-29.479,-25.856,-24.039,-22.541,-27.554,-25.660,-32.362,-28.971,-28.622,-28.568
-18.730,-16.316,-20.928,-16.767,-14.764,-19.951,-18.516,-16.160,-14.904,-13.805,-17.128,-15.835,-20.753,-18.006,-18.079,-17.588
5.672,4.361,5.294,5.935,4.116,5.668,5.073,5.030,4.685,4.406,4.704,5.706,5.200,6.127,5.351,5.576
31.117,24.901,31.914,28.688,24.100,32.379,29.093,26.599,25.035,23.398,27.824,27.373,31.879,30.434,29.398,29.439
45.090,35.583,46.562,41.832,34.800,47.234,42.294,38.767,36.901,34.004,40.489,39.326,46.273,43.890,42.795,42.843
42.714,33.634,43.614,39.313,32.597,44.278,40.431,36.434,33.905,32.430,37.709,37.461,43.343,41.273,40.329,40.155
26.785,20.917,26.158,24.550,20.175,27.523,25.172,22.755,21.285,20.487,23.104,23.340,26.576,25.669,24.818,25.074
6.353,3.879,4.731,5.901,4.173,5.612,4.719,4.873,4.451,4.967,4.660,5.005,4.835,5.982,5.511,5.709
-9.437,-8.690,-11.377,-8.733,-7.633,-10.645,-10.114,-8.447,-8.228,-7.028,-9.660,-8.772,-11.441,-9.472,-9.585,-8.930
-15.194,-13.786,-17.576,-13.805,-11.896,-16.628,-15.150,-13.674,-13.945,-11.871,-15.693,-14.041,-17.248,-14.937,-15.401,-14.268
-12.028,-11.127,-14.085,-11.435,-9.679,-13.575,-11.820,-11.323,-11.055,-9.337,-12.293,-11.344,-13.859,-12.315,-12.465,-11.425
-5.758,-5.898,-7.565,-5.103,-4.688,-6.963,-5.500,-5.864,-5.676,-4.627,-6.524,-5.240,-7.754,-6.419,-6.070,-5.248
-0.911,-2.062,-2.170,-0.733,-0.656,-1.747,-1.117,-1.750,-1.563,-0.760,-2.158,-0.976,-2.304,-1.369,-1.374,-0.755
0.409,-0.816,-0.406,0.481,0.363,-0.062,0.192,-0.121,-0.336,0.202,-0.218,0.637,-0.618,0.138,0.363,0.463
1.040,-0.506,0.068,1.065,0.531,0.203,0.501,-0.508,-0.442,1.067,-0.178,0.710,-0.262,0.314,0.735,0.743
3.498,2.079,2.531,2.981,2.633,2.756,2.804,2.524,1.849,2.811,2.239,2.966,2.606,2.881,3.126,3.289
9.060,6.353,8.661,8.818,6.857,8.831,8.654,7.458,6.799,6.850,7.650,8.216,8.286,8.118,8.634,9.353
15.197,11.661,14.715,13.791,11.536,15.419,14.550,12.650,11.485,11.071,12.854,13.683,14.731,14.056,14.484,14.859
15.556,12.216,15.323,14.413,12.483,16.051,14.504,12.782,12.349,11.182,13.328,13.860,15.046,14.692,15.065,14.864
6.490,4.527,5.797,5.835,5.158,6.640,6.014,5.052,4.668,4.794,5.051,5.731,5.112,5.769,6.178,6.041
-11.749,-10.368,-13.248,-10.653,-8.888,-12.596,-11.743,-10.445,-10.048,-8.838,-11.690,-10.138,-13.727,-11.709,-11.155,-10.731
-31.765,-26.916,-34.542,-28.762,-25.047,-33.767,-30.939,-27.784,-26.579,-24.221,-29.962,-28.201,-35.262,-31.304,-30.637,-30.232
-44.326,-36.632,-47.366,-40.689,-34.588,-46.860,-43.258,-38.263,-36.119,-33.818,-41.515,-38.799,-47.918,-43.612,-42.699,-42.192
-41.522,-34.527,-44.110,-38.021,-32.118,-43.882,-40.576,-35.935,-33.964,-31.571,-38.430,-35.820,-44.339,-40.778,-39.726,-38.912
-22.571,-19.403,-24.630,-20.756,-17.060,-24.259,-22.204,-19.790,-18.418,-17.212,-21.384,-19.704,-24.896,-22.132,-21.912,-20.971
3.740,2.326,2.841,2.879,3.235,3.267,3.236,2.996,2.665,2.867,3.052,3.279,2.768,3.406,3.583,3.566
24.892,19.637,25.436,23.042,19.559,26.008,24.086,21.162,20.366,19.095,22.446,22.146,25.349,24.170,23.575,23.780
30.163,23.991,31.128,27.476,23.690,31.923,29.123,25.840,24.789,23.148,27.118,26.883,30.913,29.502,28.736,28.701
15.677,12.438,16.191,14.809,12.591,16.996,15.810,13.677,13.499,12.768,14.395,14.237,16.304,15.404,15.104,15.216
-10.299,-9.501,-11.772,-10.163,-8.245,-11.589,-10.012,-9.673,-8.461,-7.687,-10.246,-9.135,-12.264,-10.404,-10.310,-10.267
-38.029,-31.404,-40.997,-35.206,-29.564,-39.921,-36.238,-33.036,-30.798,-28.248,-35.516,-33.084,-40.969,-36.445,-36.468,-35.289
-53.041,-44.184,-56.608,-48.801,-41.945,-56.098,-50.942,-46.227,-43.063,-40.081,-49.017,-46.294,-57.294,-51.356,-51.018,-49.882
-50.313,-41.893,-53.925,-46.606,-39.733,-53.227,-48.109,-43.430,-40.848,-38.013,-46.170,-43.893,-53.961,-48.580,-48.131,-47.392
-31.853,-27.321,-34.830,-29.741,-25.431,-34.941,-31.132,-28.460,-26.079,-24.591,-30.138,-28.656,-35.097,-31.693,-31.051,-30.443
-9.344,-8.473,-11.168,-9.680,-8.236,-10.964,-9.716,-8.690,-7.929,-7.454,-9.380,-9.269,-11.368,-9.712,-9.626,-8.551
7.384,4.857,6.386,6.066,5.005,6.688,6.661,6.321,5.849,5.483,5.489,5.605,6.195,6.813,6.976,6.836
12.400,8.881,11.451,10.789,9.200,11.602,11.512,9.801,9.388,9.162,10.401,9.606,11.137,11.199,11.122,11.513
6.061,3.459,4.750,5.042,4.098,5.234,5.227,4.355,4.226,4.461,4.618,4.463,3.898,4.613,5.475,5.338
-5.783,-5.711,-7.569,-5.487,-5.010,-6.788,-5.837,-5.736,-5.313,-4.361,-5.729,-5.485,-7.906,-6.309,-5.998,-4.998
-15.174,-13.617,-17.430,-14.692,-12.393,-16.620,-15.182,-14.481,-12.758,-12.007,-14.418,-14.120,-18.122,-15.887,-15.188,-14.640
-19.754,-17.471,-22.271,-18.409,-15.880,-21.322,-19.185,-17.697,-16.901,-15.145,-19.014,-17.834,-23.150,-20.118,-19.360,-18.857
-20.326,-17.677,-22.336,-18.820,-15.897,-21.737,-20.030,-17.803,-16.995,-15.431,-19.155,-18.333,-23.619,-20.075,-20.000,-18.635
-20.386,-17.400,-22.045,-19.038,-15.507,-21.280,-19.826,-17.877,-17.085,-15.478,-18.951,-17.856,-22.626,-19.927,-19.567,-18.858
-22.167,-18.865,-24.211,-20.166,-16.755,-23.334,-21.369,-19.570,-18.464,-16.910,-20.431,-19.010,-24.340,-21.735,-21.400,-20.092
-24.606,-21.026,-26.951,-22.488,-18.957,-25.955,-23.839,-21.739,-20.181,-19.129,-22.980,-21.380,-26.964,-23.738,-23.536,-22.916
-23.972,-20.393,-26.374,-22.360,-18.726,-25.206,-23.555,-21.349,-20.011,-19.033,-22.756,-20.949,-26.618,-23.987,-23.427,-22.030
-16.691,-14.496,-18.115,-14.820,-12.840,-17.146,-16.338,-14.219,-13.822,-12.902,-15.937,-14.440,-18.710,-16.323,-16.494,-14.929
-1.835,-2.541,-2.353,-1.457,-1.682,-2.127,-1.933,-1.842,-1.893,-1.776,-2.284,-1.483,-2.775,-1.855,-1.817,-0.943
14.315,10.909,14.931,13.171,11.219,15.514,14.107,12.884,11.216,10.764,12.617,12.369,14.374,13.871,13.821,14.354
24.395,19.024,25.055,22.061,19.042,25.910,22.873,21.320,19.238,18.583,21.897,20.876,25.255,23.714,23.250,23.679
20.895,16.498,21.328,19.104,16.369,22.074,19.442,17.920,16.664,15.450,18.954,17.801,21.557,20.372,20.106,20.472
3.406,2.425,2.948,3.717,2.585,3.762,2.976,2.723,2.122,2.389,2.619,2.675,3.079,3.189,3.305,4.178
-21.279,-17.266,-22.228,-19.043,-16.371,-21.793,-20.287,-18.283,-17.568,-16.152,-19.268,-18.776,-22.255,-19.773,-20.030,-19.035
-40.403,-32.314,-42.562,-36.923,-30.988,-42.150,-38.817,-34.738,-33.057,-30.312,-36.591,-35.505,-42.510,-38.746,-37.978,-36.992
-43.365,-35.363,-46.452,-39.516,-33.643,-45.539,-41.917,-37.248,-35.206,-33.006,-39.352,-38.532,-46.682,-41.841,-41.149,-40.002
-27.770,-22.810,-29.950,-25.846,-21.275,-29.613,-26.849,-23.647,-23.094,-20.747,-25.166,-24.891,-30.796,-26.911,-26.617,-25.277
30.667,24.743,31.560,27.912,24.141,32.257,29.618,26.298,24.109,23.443,28.126,26.394,31.092,29.568,29.427,29.858
58.427,47.793,61.154,53.405,46.095,61.979,56.189,50.232,47.258,44.635,54.162,51.232,60.841,56.603,56.184,55.880
73.970,59.829,77.366,67.785,58.117,78.525,71.147,63.914,59.735,55.678,68.256,64.627,77.268,71.640,70.910,70.430
70.289,57.218,73.184,64.773,55.258,74.732,68.084,60.448,56.783,52.948,64.874,61.541,74.024,68.101,67.872,67.109
20.666,17.107,21.392,19.736,16.519,22.872,20.081,17.699,16.647,15.728,19.696,18.407,21.850,20.264,20.336,20.630
-3.178,-2.549,-3.980,-2.490,-2.448,-2.881,-3.187,-2.831,-3.490,-2.397,-2.419,-3.135,-3.454,-3.324,-2.392,-2.597
-20.664,-17.157,-22.236,-18.806,-15.996,-21.409,-19.667,-17.526,-17.262,-16.031,-18.242,-18.242,-22.239,-19.710,-18.329,-19.190
-24.260,-19.532,-25.769,-21.935,-18.859,-25.239,-22.599,-20.928,-20.155,-18.005,-21.195,-21.357,-25.997,-23.010,-21.859,-22.666
-14.000,-11.703,-15.246,-12.926,-11.089,-14.509,-13.176,-12.019,-11.769,-10.162,-12.864,-12.682,-15.372,-13.333,-12.688,-13.130
2.438,1.907,1.522,1.941,2.469,2.848,2.730,2.292,1.399,2.114,2.309,1.999,2.108,2.424,3.156,2.766
17.370,14.166,17.105,15.157,13.539,18.144,16.878,15.127,13.318,13.633,15.952,14.906,17.452,17.250,16.864,16.838
24.238,20.089,25.323,22.458,19.315,26.317,24.353,21.218,19.797,18.972,22.805,21.458,25.235,24.698,24.123,23.556
24.332,20.310,25.777,23.200,20.078,26.947,24.428,21.513,19.742,19.009,23.281,21.781,25.978,25.098,24.407,24.376
21.732,18.258,22.953,20.593,17.833,24.013,21.974,19.359,17.496,17.307,21.207,19.143,23.535,22.188,21.990,21.638
20.428,17.063,21.423,19.013,16.833,22.012,20.299,17.683,16.679,15.769,19.387,18.064,21.352,20.573,20.000,19.716
